SpectraSuite Data File
++++++++++++++++++++++++++++++++++++
Date: Fri May 12 15:31:17 EDT 2017
User: jcherston
Dark Spectrum Present: Yes
Reference Spectrum Present: Yes
Number of Sampled Component Spectra: 1
Spectrometers: USB4F06975
Integration Time (usec): 100000 (USB4F06975)
Spectra Averaged: 1 (USB4F06975)
Boxcar Smoothing: 0 (USB4F06975)
Correct for Electrical Dark: No (USB4F06975)
Strobe/Lamp Enabled: No (USB4F06975)
Correct for Detector Non-linearity: No (USB4F06975)
Correct for Stray Light: No (USB4F06975)
Number of Pixels in Processed Spectrum: 3648
>>>>>Begin Processed Spectral Data<<<<<
346.57	1468.39
346.78	1468.39
346.99	1468.39
347.20	1435.63
347.41	1458.15
347.62	1607.66
347.83	1552.36
348.04	1574.89
348.25	1552.36
348.46	1626.09
348.67	1632.23
348.88	1593.32
349.09	1550.31
349.30	1566.70
349.51	1570.79
349.72	1638.38
349.93	1538.02
350.14	1587.18
350.35	1646.57
350.56	1615.85
350.77	1628.14
350.98	1607.66
351.19	1587.18
351.40	1572.84
351.61	1607.66
351.82	1589.22
352.03	1523.69
352.24	1697.77
352.45	1648.61
352.66	1621.99
352.87	1601.51
353.08	1583.08
353.29	1595.37
353.50	1570.79
353.71	1607.66
353.92	1607.66
354.13	1636.33
354.34	1529.83
354.55	1531.88
354.76	1591.27
354.97	1578.98
355.18	1515.50
355.39	1595.37
355.60	1667.05
355.80	1558.50
356.01	1529.83
356.22	1642.47
356.43	1615.85
356.64	1603.56
356.85	1613.80
357.06	1570.79
357.27	1589.22
357.48	1652.71
357.69	1597.42
357.90	1621.99
358.11	1601.51
358.32	1548.26
358.53	1562.60
358.74	1611.75
358.95	1564.65
359.16	1644.52
359.37	1589.22
359.58	1628.14
359.79	1507.30
360.00	1560.55
360.21	1638.38
360.42	1595.37
360.63	1556.46
360.84	1595.37
361.05	1538.02
361.26	1572.84
361.46	1603.56
361.67	1527.78
361.88	1562.60
362.09	1570.79
362.30	1599.46
362.51	1691.62
362.72	1529.83
362.93	1621.99
363.14	1607.66
363.35	1632.23
363.56	1587.18
363.77	1562.60
363.98	1660.90
364.19	1783.78
364.40	1597.42
364.61	1617.90
364.82	1554.41
365.03	1626.09
365.24	1652.71
365.44	1513.45
365.65	1482.73
365.86	1710.05
366.07	1570.79
366.28	1566.70
366.49	1611.75
366.70	1640.42
366.91	1685.48
367.12	1648.61
367.33	1640.42
367.54	1636.33
367.75	1617.90
367.96	1570.79
368.17	1640.42
368.38	1617.90
368.58	1568.74
368.79	1654.76
369.00	1640.42
369.21	1566.70
369.42	1507.30
369.63	1621.99
369.84	1624.04
370.05	1628.14
370.26	1576.94
370.47	1636.33
370.68	1581.03
370.89	1656.81
371.09	1583.08
371.30	1632.23
371.51	1587.18
371.72	1533.93
371.93	1632.23
372.14	1562.60
372.35	1667.05
372.56	1591.27
372.77	1525.74
372.98	1566.70
373.19	1624.04
373.40	1611.75
373.60	1628.14
373.81	1546.22
374.02	1652.71
374.23	1574.89
374.44	1597.42
374.65	1646.57
374.86	1617.90
375.07	1646.57
375.28	1515.50
375.49	1597.42
375.69	1636.33
375.90	1546.22
376.11	1509.35
376.32	1634.28
376.53	1644.52
376.74	1550.31
376.95	1570.79
377.16	1601.51
377.37	1626.09
377.58	1581.03
377.78	1488.87
377.99	1589.22
378.20	1671.14
378.41	1632.23
378.62	1654.76
378.83	1570.79
379.04	1605.61
379.25	1599.46
379.46	1611.75
379.66	1648.61
379.87	1609.70
380.08	1599.46
380.29	1591.27
380.50	1669.09
380.71	1578.98
380.92	1634.28
381.13	1570.79
381.33	1546.22
381.54	1705.96
381.75	1630.18
381.96	1603.56
382.17	1574.89
382.38	1656.81
382.59	1609.70
382.80	1542.12
383.00	1712.10
383.21	1587.18
383.42	1548.26
383.63	1597.42
383.84	1607.66
384.05	1525.74
384.26	1558.50
384.47	1568.74
384.67	1574.89
384.88	1574.89
385.09	1589.22
385.30	1656.81
385.51	1562.60
385.72	1583.08
385.93	1585.13
386.13	1656.81
386.34	1628.14
386.55	1605.61
386.76	1615.85
386.97	1574.89
387.18	1542.12
387.39	1578.98
387.59	1611.75
387.80	1576.94
388.01	1685.48
388.22	1562.60
388.43	1607.66
388.64	1564.65
388.85	1572.84
389.05	1675.24
389.26	1679.33
389.47	1599.46
389.68	1669.09
389.89	1529.83
390.10	1538.02
390.31	1665.00
390.51	1525.74
390.72	1570.79
390.93	1554.41
391.14	1587.18
391.35	1554.41
391.56	1656.81
391.76	1605.61
391.97	1671.14
392.18	1603.56
392.39	1593.32
392.60	1636.33
392.81	1515.50
393.01	1638.38
393.22	1576.94
393.43	1513.45
393.64	1550.31
393.85	1687.53
394.06	1599.46
394.26	1687.53
394.47	1587.18
394.68	1615.85
394.89	1556.46
395.10	1609.70
395.31	1607.66
395.51	1652.71
395.72	1546.22
395.93	1609.70
396.14	1642.47
396.35	1630.18
396.55	1658.85
396.76	1634.28
396.97	1566.70
397.18	1613.80
397.39	1535.98
397.60	1591.27
397.80	1595.37
398.01	1542.12
398.22	1591.27
398.43	1662.95
398.64	1517.54
398.84	1705.96
399.05	1533.93
399.26	1628.14
399.47	1511.40
399.68	1576.94
399.88	1624.04
400.09	1601.51
400.30	1624.04
400.51	1597.42
400.72	1583.08
400.92	1624.04
401.13	1632.23
401.34	1533.93
401.55	1607.66
401.76	1640.42
401.96	1679.33
402.17	1677.29
402.38	1593.32
402.59	1652.71
402.80	1972.19
403.00	1578.98
403.21	1626.09
403.42	1628.14
403.63	1634.28
403.84	1587.18
404.04	1656.81
404.25	1587.18
404.46	1595.37
404.67	1718.25
404.88	1632.23
405.08	1589.22
405.29	1658.85
405.50	1644.52
405.71	1533.93
405.91	1585.13
406.12	1552.36
406.33	1609.70
406.54	1542.12
406.75	1548.26
406.95	1556.46
407.16	1583.08
407.37	1677.29
407.58	1611.75
407.78	1925.09
407.99	1665.00
408.20	1509.35
408.41	1677.29
408.62	1574.89
408.82	1583.08
409.03	1564.65
409.24	1562.60
409.45	1572.84
409.65	1562.60
409.86	1505.26
410.07	1605.61
410.28	1492.97
410.48	1611.75
410.69	1621.99
410.90	1601.51
411.11	1611.75
411.31	1636.33
411.52	1613.80
411.73	1621.99
411.94	1599.46
412.14	1619.94
412.35	1556.46
412.56	1566.70
412.77	1519.59
412.98	1640.42
413.18	1548.26
413.39	1603.56
413.60	1611.75
413.81	1652.71
414.01	1607.66
414.22	1603.56
414.43	1566.70
414.64	1570.79
414.84	1517.54
415.05	1552.36
415.26	1603.56
415.46	1603.56
415.67	1552.36
415.88	1521.64
416.09	1587.18
416.29	1595.37
416.50	1628.14
416.71	1619.94
416.92	1621.99
417.12	1540.07
417.33	1628.14
417.54	1617.90
417.75	1538.02
417.95	1603.56
418.16	1619.94
418.37	1529.83
418.58	1548.26
418.78	1568.74
418.99	1583.08
419.20	1599.46
419.40	1697.77
419.61	1595.37
419.82	1570.79
420.03	1636.33
420.23	1591.27
420.44	1634.28
420.65	1568.74
420.85	1624.04
421.06	1550.31
421.27	1564.65
421.48	1652.71
421.68	1638.38
421.89	1581.03
422.10	1591.27
422.30	1593.32
422.51	1570.79
422.72	1523.69
422.93	1587.18
423.13	1595.37
423.34	1599.46
423.55	1640.42
423.75	1587.18
423.96	1529.83
424.17	1556.46
424.38	1572.84
424.58	1591.27
424.79	1626.09
425.00	1550.31
425.20	1646.57
425.41	1685.48
425.62	1685.48
425.83	1470.44
426.03	1556.46
426.24	1644.52
426.45	1566.70
426.65	1632.23
426.86	1533.93
427.07	1617.90
427.27	1605.61
427.48	1607.66
427.69	1531.88
427.89	1568.74
428.10	1628.14
428.31	1650.66
428.52	1609.70
428.72	1597.42
428.93	1652.71
429.14	1624.04
429.34	1562.60
429.55	1562.60
429.76	1650.66
429.96	1548.26
430.17	1699.81
430.38	1607.66
430.58	1546.22
430.79	1613.80
431.00	1613.80
431.20	1669.09
431.41	1587.18
431.62	1732.58
431.82	1613.80
432.03	1589.22
432.24	1452.01
432.44	1685.48
432.65	1593.32
432.86	1505.26
433.06	1603.56
433.27	1599.46
433.48	1630.18
433.68	1597.42
433.89	1523.69
434.10	1642.47
434.30	1595.37
434.51	1578.98
434.72	1597.42
434.92	1660.90
435.13	1640.42
435.34	1611.75
435.54	1603.56
435.75	1624.04
435.96	1593.32
436.16	1613.80
436.37	1550.31
436.58	1583.08
436.78	1613.80
436.99	1632.23
437.20	1638.38
437.40	1691.62
437.61	1654.76
437.82	1599.46
438.02	1658.85
438.23	1603.56
438.43	1658.85
438.64	1572.84
438.85	1630.18
439.05	1591.27
439.26	1667.05
439.47	1619.94
439.67	1593.32
439.88	1605.61
440.09	1583.08
440.29	1611.75
440.50	1679.33
440.71	1546.22
440.91	1685.48
441.12	1648.61
441.32	1599.46
441.53	1605.61
441.74	1611.75
441.94	1560.55
442.15	1533.93
442.36	1630.18
442.56	1689.57
442.77	1626.09
442.97	1605.61
443.18	1722.34
443.39	1613.80
443.59	1591.27
443.80	1595.37
444.01	1617.90
444.21	1609.70
444.42	1599.46
444.62	1460.20
444.83	1523.69
445.04	1671.14
445.24	1619.94
445.45	1697.77
445.66	1677.29
445.86	1611.75
446.07	1535.98
446.27	1564.65
446.48	1585.13
446.69	1609.70
446.89	1726.44
447.10	1591.27
447.30	1601.51
447.51	1621.99
447.72	1652.71
447.92	1695.72
448.13	1554.41
448.33	1548.26
448.54	1613.80
448.75	1529.83
448.95	1705.96
449.16	1603.56
449.36	1628.14
449.57	1681.38
449.78	1695.72
449.98	1665.00
450.19	1507.30
450.39	1669.09
450.60	1572.84
450.81	1667.05
451.01	1544.17
451.22	1574.89
451.42	1564.65
451.63	1587.18
451.84	1529.83
452.04	1656.81
452.25	1685.48
452.45	1578.98
452.66	1603.56
452.86	1615.85
453.07	1636.33
453.28	1593.32
453.48	1695.72
453.69	1574.89
453.89	1554.41
454.10	1667.05
454.30	1611.75
454.51	1607.66
454.72	1517.54
454.92	1640.42
455.13	1587.18
455.33	1597.42
455.54	1726.44
455.74	1529.83
455.95	1621.99
456.16	1554.41
456.36	1611.75
456.57	1650.66
456.77	1695.72
456.98	1646.57
457.18	1660.90
457.39	1589.22
457.60	1589.22
457.80	1714.15
458.01	1591.27
458.21	1615.85
458.42	1662.95
458.62	1591.27
458.83	1552.36
459.03	1656.81
459.24	1685.48
459.45	1581.03
459.65	1583.08
459.86	1650.66
460.06	1583.08
460.27	1556.46
460.47	1595.37
460.68	1681.38
460.88	1650.66
461.09	1581.03
461.30	1699.81
461.50	1632.23
461.71	1669.09
461.91	1497.07
462.12	1638.38
462.32	1578.98
462.53	1605.61
462.73	1687.53
462.94	1624.04
463.14	1630.18
463.35	1640.42
463.55	1654.76
463.76	1634.28
463.96	1556.46
464.17	1617.90
464.38	1613.80
464.58	1634.28
464.79	1578.98
464.99	1644.52
465.20	1634.28
465.40	1589.22
465.61	1621.99
465.81	1636.33
466.02	1656.81
466.22	1626.09
466.43	1562.60
466.63	1648.61
466.84	1634.28
467.04	1648.61
467.25	1667.05
467.45	1621.99
467.66	1591.27
467.86	1658.85
468.07	1628.14
468.27	1697.77
468.48	1628.14
468.68	1685.48
468.89	1683.43
469.09	1560.55
469.30	1705.96
469.51	1566.70
469.71	1683.43
469.92	1566.70
470.12	1718.25
470.33	1607.66
470.53	1544.17
470.74	1605.61
470.94	1636.33
471.15	1581.03
471.35	1937.38
471.56	1640.42
471.76	1597.42
471.97	1621.99
472.17	1595.37
472.38	1689.57
472.58	1720.29
472.78	1621.99
472.99	1652.71
473.19	1660.90
473.40	1642.47
473.60	1775.59
473.81	1548.26
474.01	1630.18
474.22	1626.09
474.42	1712.10
474.63	1613.80
474.83	1630.18
475.04	1597.42
475.24	1677.29
475.45	1748.97
475.65	1554.41
475.86	1513.45
476.06	1613.80
476.27	1611.75
476.47	1628.14
476.68	1587.18
476.88	1619.94
477.09	1673.19
477.29	1560.55
477.50	1675.24
477.70	1701.86
477.90	1566.70
478.11	1796.07
478.31	1597.42
478.52	1603.56
478.72	1640.42
478.93	1621.99
479.13	1669.09
479.34	1689.57
479.54	1613.80
479.75	1587.18
479.95	1642.47
480.16	1665.00
480.36	1656.81
480.56	1611.75
480.77	1677.29
480.97	1761.25
481.18	1662.95
481.38	1832.93
481.59	1662.95
481.79	1607.66
482.00	1593.32
482.20	1671.14
482.41	1892.32
482.61	1671.14
482.81	1605.61
483.02	1716.20
483.22	1607.66
483.43	1712.10
483.63	1716.20
483.84	1671.14
484.04	1687.53
484.24	1650.66
484.45	1703.91
484.65	1660.90
484.86	1603.56
485.06	1636.33
485.27	1677.29
485.47	1695.72
485.68	1740.77
485.88	1628.14
486.08	1638.38
486.29	1632.23
486.49	1705.96
486.70	1755.11
486.90	1677.29
487.11	1746.92
487.31	1712.10
487.51	1615.85
487.72	1685.48
487.92	1777.64
488.13	1789.92
488.33	1660.90
488.53	1644.52
488.74	1685.48
488.94	1652.71
489.15	1646.57
489.35	1693.67
489.56	1660.90
489.76	1718.25
489.96	1603.56
490.17	1742.82
490.37	1669.09
490.58	1781.73
490.78	1726.44
490.98	1654.76
491.19	1689.57
491.39	1744.87
491.60	1605.61
491.80	1630.18
492.00	1654.76
492.21	1742.82
492.41	1753.06
492.62	1667.05
492.82	1689.57
493.02	1767.40
493.23	1775.59
493.43	1726.44
493.64	1630.18
493.84	1705.96
494.04	1802.21
494.25	1675.24
494.45	1714.15
494.66	1710.05
494.86	1652.71
495.06	1714.15
495.27	1746.92
495.47	1765.35
495.67	1734.63
495.88	1652.71
496.08	1744.87
496.29	1789.92
496.49	1718.25
496.69	1763.30
496.90	1763.30
497.10	1753.06
497.30	1681.38
497.51	1699.81
497.71	1695.72
497.92	1675.24
498.12	1673.19
498.32	1763.30
498.53	1810.40
498.73	1632.23
498.93	1742.82
499.14	1728.49
499.34	1742.82
499.55	1689.57
499.75	1703.91
499.95	1689.57
500.16	1734.63
500.36	1667.05
500.56	1767.40
500.77	1763.30
500.97	1796.07
501.17	1720.29
501.38	1669.09
501.58	1636.33
501.79	1802.21
501.99	1716.20
502.19	1669.09
502.40	1712.10
502.60	1775.59
502.80	1740.77
503.01	1726.44
503.21	1769.44
503.41	1720.29
503.62	1828.84
503.82	1669.09
504.02	1730.53
504.23	1695.72
504.43	1800.16
504.63	1624.04
504.84	1693.67
505.04	1644.52
505.24	1724.39
505.45	1681.38
505.65	1685.48
505.85	1701.86
506.06	1812.45
506.26	1718.25
506.46	1783.78
506.67	1746.92
506.87	1652.71
507.07	1761.25
507.28	1716.20
507.48	1701.86
507.68	1763.30
507.89	1755.11
508.09	1734.63
508.29	1740.77
508.50	1726.44
508.70	1839.08
508.90	1667.05
509.11	1867.75
509.31	1722.34
509.51	1736.68
509.72	1775.59
509.92	1751.01
510.12	1834.98
510.32	1761.25
510.53	1794.02
510.73	1783.78
510.93	1734.63
511.14	1705.96
511.34	1726.44
511.54	1826.79
511.75	1763.30
511.95	1832.93
512.15	1705.96
512.36	1783.78
512.56	1699.81
512.76	1763.30
512.96	1808.36
513.17	1849.32
513.37	1781.73
513.57	1716.20
513.78	1716.20
513.98	1720.29
514.18	1787.88
514.38	1726.44
514.59	1779.68
514.79	1818.60
514.99	1761.25
515.20	1783.78
515.40	1802.21
515.60	1794.02
515.80	1718.25
516.01	1773.54
516.21	1828.84
516.41	1744.87
516.62	1845.22
516.82	1763.30
517.02	1812.45
517.22	1863.65
517.43	1777.64
517.63	1804.26
517.83	1775.59
518.04	1779.68
518.24	1742.82
518.44	1767.40
518.64	1791.97
518.85	1824.74
519.05	1787.88
519.25	1775.59
519.45	1791.97
519.66	1771.49
519.86	1759.21
520.06	1781.73
520.26	1828.84
520.47	1765.35
520.67	1738.73
520.87	1820.64
521.08	1726.44
521.28	1763.30
521.48	1820.64
521.68	1701.86
521.89	1751.01
522.09	1894.37
522.29	1834.98
522.49	1777.64
522.70	1888.23
522.90	1904.61
523.10	1804.26
523.30	1742.82
523.51	1806.31
523.71	1730.53
523.91	1773.54
524.11	1783.78
524.31	1779.68
524.52	1828.84
524.72	1773.54
524.92	1865.70
525.12	1796.07
525.33	1677.29
525.53	1796.07
525.73	1794.02
525.93	1857.51
526.14	1779.68
526.34	1798.12
526.54	1732.58
526.74	1773.54
526.95	1873.89
527.15	1765.35
527.35	1886.18
527.55	1820.64
527.75	1677.29
527.96	1771.49
528.16	1818.60
528.36	1699.81
528.56	1828.84
528.77	1771.49
528.97	1820.64
529.17	1824.74
529.37	1832.93
529.57	1871.84
529.78	1875.94
529.98	1773.54
530.18	1865.70
530.38	1695.72
530.58	1818.60
530.79	1777.64
530.99	1818.60
531.19	1728.49
531.39	1820.64
531.59	1814.50
531.80	1853.41
532.00	1828.84
532.20	1695.72
532.40	1746.92
532.60	1892.32
532.81	1804.26
533.01	1826.79
533.21	1818.60
533.41	1837.03
533.61	1869.80
533.82	1826.79
534.02	1849.32
534.22	1824.74
534.42	1877.99
534.62	1918.95
534.83	1849.32
535.03	1822.69
535.23	1787.88
535.43	1826.79
535.63	1857.51
535.83	1865.70
536.04	1851.36
536.24	1832.93
536.44	1843.17
536.64	1812.45
536.84	1896.42
537.05	1748.97
537.25	1871.84
537.45	1822.69
537.65	1787.88
537.85	1877.99
538.05	1832.93
538.26	1847.27
538.46	1867.75
538.66	1882.08
538.86	1806.31
539.06	1816.55
539.26	1818.60
539.47	1859.56
539.67	1816.55
539.87	1943.52
540.07	1931.23
540.27	1945.57
540.47	1900.52
540.68	1927.14
540.88	1941.47
541.08	1916.90
541.28	1857.51
541.48	1863.65
541.68	1892.32
541.88	1906.66
542.09	2000.87
542.29	1910.75
542.49	1849.32
542.69	2052.06
542.89	1933.28
543.09	1906.66
543.29	1855.46
543.50	1898.47
543.70	1841.12
543.90	1882.08
544.10	1869.80
544.30	1843.17
544.50	1873.89
544.70	1849.32
544.91	1943.52
545.11	1898.47
545.31	1902.56
545.51	1837.03
545.71	1955.81
545.91	1959.91
546.11	1847.27
546.31	1888.23
546.52	1949.67
546.72	1929.19
546.92	1837.03
547.12	1925.09
547.32	1892.32
547.52	1837.03
547.72	1863.65
547.92	1894.37
548.13	1918.95
548.33	1826.79
548.53	1832.93
548.73	1853.41
548.93	1857.51
549.13	1957.86
549.33	1875.94
549.53	1884.13
549.73	1828.84
549.94	1847.27
550.14	1853.41
550.34	1849.32
550.54	1877.99
550.74	1886.18
550.94	1933.28
551.14	2021.35
551.34	1863.65
551.54	1933.28
551.74	1877.99
551.95	1861.60
552.15	1939.43
552.35	1841.12
552.55	1972.19
552.75	1992.67
552.95	1873.89
553.15	1849.32
553.35	1873.89
553.55	1906.66
553.75	1853.41
553.95	1937.38
554.16	1898.47
554.36	1828.84
554.56	1931.23
554.76	1863.65
554.96	1837.03
555.16	1888.23
555.36	1943.52
555.56	1992.67
555.76	1882.08
555.96	1918.95
556.16	1871.84
556.36	1964.00
556.57	1855.46
556.77	1873.89
556.97	2035.68
557.17	1923.04
557.37	1847.27
557.57	1877.99
557.77	1890.28
557.97	1875.94
558.17	1865.70
558.37	1951.71
558.57	2017.25
558.77	1869.80
558.97	1943.52
559.17	1914.85
559.37	1939.43
559.57	1914.85
559.78	1820.64
559.98	1877.99
560.18	1914.85
560.38	1918.95
560.58	1949.67
560.78	2009.06
560.98	1964.00
561.18	1976.29
561.38	1902.56
561.58	1988.58
561.78	1914.85
561.98	1923.04
562.18	1861.60
562.38	1945.57
562.58	1955.81
562.78	1914.85
562.98	1912.80
563.18	1902.56
563.38	1912.80
563.58	1931.23
563.78	1998.82
563.98	1824.74
564.18	1867.75
564.38	1906.66
564.58	1884.13
564.79	2004.96
564.99	1851.36
565.19	1982.43
565.39	1941.47
565.59	1945.57
565.79	1867.75
565.99	1970.15
566.19	1886.18
566.39	1894.37
566.59	1964.00
566.79	1914.85
566.99	1957.86
567.19	1896.42
567.39	1906.66
567.59	1986.53
567.79	1925.09
567.99	1961.95
568.19	1976.29
568.39	1968.10
568.59	1869.80
568.79	1935.33
568.99	1916.90
569.19	1845.22
569.39	1968.10
569.59	1871.84
569.79	1875.94
569.99	1906.66
570.19	1939.43
570.39	1949.67
570.59	1984.48
570.79	1906.66
570.99	1976.29
571.19	1890.28
571.39	2023.39
571.59	1933.28
571.79	2047.97
571.99	1982.43
572.19	1890.28
572.39	2082.78
572.59	1925.09
572.79	1908.71
572.99	1918.95
573.19	1935.33
573.39	1959.91
573.59	2029.54
573.79	1855.46
573.99	1910.75
574.19	1892.32
574.38	1939.43
574.58	1910.75
574.78	2037.73
574.98	1976.29
575.18	2000.87
575.38	2019.30
575.58	1955.81
575.78	1955.81
575.98	1923.04
576.18	1925.09
576.38	1898.47
576.58	1941.47
576.78	1882.08
576.98	2000.87
577.18	1968.10
577.38	1923.04
577.58	1914.85
577.78	1955.81
577.98	2031.58
578.18	1998.82
578.38	1972.19
578.58	1937.38
578.78	2017.25
578.98	1951.71
579.18	1931.23
579.37	2000.87
579.57	1916.90
579.77	1972.19
579.97	1947.62
580.17	1902.56
580.37	2000.87
580.57	1988.58
580.77	1996.77
580.97	2408.41
581.17	1992.67
581.37	1902.56
581.57	2029.54
581.77	1888.23
581.97	1976.29
582.17	1996.77
582.37	1976.29
582.56	2086.88
582.76	2039.78
582.96	1939.43
583.16	1908.71
583.36	1974.24
583.56	2015.20
583.76	2002.91
583.96	1990.63
584.16	2000.87
584.36	2021.35
584.56	1914.85
584.76	2113.50
584.95	2035.68
585.15	2004.96
585.35	1972.19
585.55	2029.54
585.75	2045.92
585.95	2047.97
586.15	1908.71
586.35	2058.21
586.55	2054.11
586.75	1943.52
586.95	2037.73
587.14	1978.34
587.34	2043.87
587.54	1996.77
587.74	2004.96
587.94	1906.66
588.14	1976.29
588.34	2103.26
588.54	1918.95
588.74	2101.22
588.94	1992.67
589.13	1982.43
589.33	1968.10
589.53	2002.91
589.73	2004.96
589.93	2039.78
590.13	2013.15
590.33	1978.34
590.53	1957.86
590.72	2103.26
590.92	2033.63
591.12	2045.92
591.32	2015.20
591.52	2015.20
591.72	2000.87
591.92	2082.78
592.12	2043.87
592.32	1978.34
592.51	1990.63
592.71	2068.45
592.91	1996.77
593.11	2086.88
593.31	1976.29
593.51	1933.28
593.71	2045.92
593.90	1968.10
594.10	2039.78
594.30	2017.25
594.50	2162.66
594.70	2019.30
594.90	1990.63
595.10	2037.73
595.29	2050.02
595.49	1986.53
595.69	2090.98
595.89	2052.06
596.09	2064.35
596.29	2105.31
596.49	1980.39
596.68	1998.82
596.88	2070.50
597.08	2025.44
597.28	2007.01
597.48	2103.26
597.68	1953.76
597.87	1988.58
598.07	2060.26
598.27	2095.07
598.47	2054.11
598.67	2017.25
598.87	2146.27
599.06	2039.78
599.26	2076.64
599.46	2150.37
599.66	2072.54
599.86	2095.07
600.06	2099.17
600.25	2013.15
600.45	2023.39
600.65	2121.70
600.85	2076.64
601.05	2070.50
601.25	2050.02
601.44	2117.60
601.64	2062.30
601.84	2109.41
602.04	2009.06
602.24	2121.70
602.43	2045.92
602.63	2007.01
602.83	2103.26
603.03	2062.30
603.23	2095.07
603.42	2070.50
603.62	2045.92
603.82	2086.88
604.02	2095.07
604.22	2070.50
604.42	2058.21
604.61	2133.98
604.81	2156.51
605.01	2105.31
605.21	2418.65
605.40	2027.49
605.60	2068.45
605.80	2148.32
606.00	2097.12
606.20	1978.34
606.39	2086.88
606.59	2080.74
606.79	2058.21
606.99	2037.73
607.19	2090.98
607.38	2080.74
607.58	2152.42
607.78	2072.54
607.98	2121.70
608.18	2070.50
608.37	2117.60
608.57	2084.83
608.77	2207.71
608.97	2127.84
609.16	2052.06
609.36	2111.46
609.56	2211.81
609.76	2170.85
609.95	2195.42
610.15	2222.05
610.35	2082.78
610.55	2082.78
610.75	2064.35
610.94	2111.46
611.14	2146.27
611.34	2248.67
611.54	2203.61
611.73	2252.77
611.93	2168.80
612.13	2113.50
612.33	2082.78
612.52	2072.54
612.72	2131.94
612.92	2095.07
613.12	2164.70
613.31	2078.69
613.51	2209.76
613.71	2150.37
613.91	2179.04
614.10	2172.89
614.30	2193.37
614.50	2119.65
614.70	2115.55
614.89	2146.27
615.09	2131.94
615.29	2123.74
615.49	2152.42
615.68	2125.79
615.88	2183.13
616.08	2195.42
616.27	2119.65
616.47	2078.69
616.67	2099.17
616.87	2146.27
617.06	2136.03
617.26	2136.03
617.46	2244.57
617.66	2066.40
617.85	2150.37
618.05	2140.13
618.25	2203.61
618.44	2170.85
618.64	2088.93
618.84	2070.50
619.04	2074.59
619.23	2152.42
619.43	2107.36
619.63	2158.56
619.82	2138.08
620.02	2115.55
620.22	2263.01
620.42	2254.81
620.61	2068.45
620.81	2146.27
621.01	2103.26
621.20	2066.40
621.40	2142.18
621.60	2093.02
621.79	2056.16
621.99	2160.61
622.19	2220.00
622.39	2090.98
622.58	2258.91
622.78	2115.55
622.98	2127.84
623.17	2164.70
623.37	2519.00
623.57	2131.94
623.76	2164.70
623.96	2203.61
624.16	2064.35
624.35	2125.79
624.55	2050.02
624.75	2316.25
624.94	2129.89
625.14	2129.89
625.34	2220.00
625.53	2127.84
625.73	2097.12
625.93	2174.94
626.12	2265.05
626.32	2142.18
626.52	2172.89
626.71	2029.54
626.91	2146.27
627.11	2168.80
627.30	2056.16
627.50	2117.60
627.70	2174.94
627.89	2179.04
628.09	2133.98
628.29	2158.56
628.48	2168.80
628.68	2127.84
628.88	2162.66
629.07	2179.04
629.27	2152.42
629.47	2140.13
629.66	2144.22
629.86	2136.03
630.06	2121.70
630.25	2197.47
630.45	2232.29
630.65	2142.18
630.84	2119.65
631.04	2197.47
631.24	2234.33
631.43	2181.09
631.63	2230.24
631.82	2136.03
632.02	2103.26
632.22	2154.46
632.41	2090.98
632.61	2258.91
632.81	2144.22
633.00	2160.61
633.20	2099.17
633.39	2164.70
633.59	2119.65
633.79	2183.13
633.98	2131.94
634.18	2050.02
634.38	2125.79
634.57	2260.96
634.77	2176.99
634.96	2142.18
635.16	2101.22
635.36	2172.89
635.55	2176.99
635.75	2252.77
635.95	2183.13
636.14	2226.14
636.34	2179.04
636.53	2203.61
636.73	2203.61
636.93	2168.80
637.12	2197.47
637.32	2160.61
637.51	2168.80
637.71	2226.14
637.91	2176.99
638.10	2271.20
638.30	2154.46
638.49	2189.28
638.69	2228.19
638.89	2123.74
639.08	2183.13
639.28	2136.03
639.47	2195.42
639.67	2224.09
639.86	2222.05
640.06	2148.32
640.26	2209.76
640.45	2267.10
640.65	2144.22
640.84	2242.53
641.04	2160.61
641.24	2140.13
641.43	2187.23
641.63	2138.08
641.82	2236.38
642.02	2133.98
642.21	2267.10
642.41	2107.36
642.61	2176.99
642.80	2324.44
643.00	2230.24
643.19	2236.38
643.39	2176.99
643.58	2152.42
643.78	2217.95
643.97	2133.98
644.17	2275.29
644.37	2117.60
644.56	2224.09
644.76	2119.65
644.95	2242.53
645.15	2232.29
645.34	2187.23
645.54	2205.66
645.73	2252.77
645.93	2267.10
646.13	2172.89
646.32	2166.75
646.52	2168.80
646.71	2287.58
646.91	2230.24
647.10	2203.61
647.30	2078.69
647.49	2217.95
647.69	2222.05
647.88	2199.52
648.08	2246.62
648.28	2275.29
648.47	2191.33
648.67	2146.27
648.86	2283.49
649.06	2310.11
649.25	2082.78
649.45	2267.10
649.64	2195.42
649.84	2283.49
650.03	2197.47
650.23	2203.61
650.42	2199.52
650.62	2277.34
650.81	2170.85
651.01	2281.44
651.20	2215.90
651.40	2236.38
651.59	2238.43
651.79	2136.03
651.98	2197.47
652.18	2119.65
652.37	2254.81
652.57	2285.53
652.76	2295.77
652.96	2148.32
653.15	2289.63
653.35	2205.66
653.54	2287.58
653.74	2299.87
653.93	2197.47
654.13	2258.91
654.32	2097.12
654.52	2226.14
654.71	2238.43
654.91	2226.14
655.10	2275.29
655.30	2203.61
655.49	2242.53
655.69	2291.68
655.88	2232.29
656.08	2269.15
656.27	2267.10
656.47	2197.47
656.66	2158.56
656.86	2332.64
657.05	2187.23
657.25	2176.99
657.44	2275.29
657.64	2189.28
657.83	2299.87
658.03	2105.31
658.22	2340.83
658.42	2314.20
658.61	2144.22
658.80	2238.43
659.00	2183.13
659.19	2166.75
659.39	2195.42
659.58	2213.85
659.78	2254.81
659.97	2310.11
660.17	2230.24
660.36	2166.75
660.56	2252.77
660.75	2213.85
660.95	2201.57
661.14	2291.68
661.33	2263.01
661.53	2185.18
661.72	2242.53
661.92	2258.91
662.11	2168.80
662.31	2232.29
662.50	2344.92
662.70	2217.95
662.89	2234.33
663.08	2263.01
663.28	2283.49
663.47	2168.80
663.67	2265.05
663.86	2334.68
664.06	2252.77
664.25	2269.15
664.44	2287.58
664.64	2193.37
664.83	2275.29
665.03	2236.38
665.22	2273.25
665.42	2213.85
665.61	2303.96
665.80	2248.67
666.00	2248.67
666.19	2260.96
666.39	2234.33
666.58	2232.29
666.77	2222.05
666.97	2185.18
667.16	2267.10
667.36	2246.62
667.55	2232.29
667.75	2330.59
667.94	2240.48
668.13	2310.11
668.33	2326.49
668.52	2246.62
668.72	2230.24
668.91	2238.43
669.10	2217.95
669.30	2242.53
669.49	2338.78
669.69	2316.25
669.88	2326.49
670.07	2334.68
670.27	2258.91
670.46	2207.71
670.66	2260.96
670.85	2349.02
671.04	2254.81
671.24	2293.72
671.43	2330.59
671.62	2265.05
671.82	2289.63
672.01	2203.61
672.21	2232.29
672.40	2295.77
672.59	2349.02
672.79	2263.01
672.98	2316.25
673.17	2176.99
673.37	2332.64
673.56	2281.44
673.76	2185.18
673.95	2299.87
674.14	2248.67
674.34	2318.30
674.53	2279.39
674.72	2258.91
674.92	2217.95
675.11	2234.33
675.30	2312.16
675.50	2340.83
675.69	2160.61
675.89	2299.87
676.08	2328.54
676.27	2373.60
676.47	2228.19
676.66	2258.91
676.85	2277.34
677.05	2287.58
677.24	2299.87
677.43	2322.40
677.63	2213.85
677.82	2338.78
678.01	2224.09
678.21	2244.57
678.40	2271.20
678.59	2338.78
678.79	2199.52
678.98	2285.53
679.17	2324.44
679.37	2246.62
679.56	2252.77
679.75	2236.38
679.95	2256.86
680.14	2334.68
680.33	2217.95
680.53	2207.71
680.72	2154.46
680.91	2314.20
681.11	2402.27
681.30	2234.33
681.49	2248.67
681.69	2322.40
681.88	2369.50
682.07	2185.18
682.26	2355.16
682.46	2346.97
682.65	2265.05
682.84	2349.02
683.04	2330.59
683.23	2234.33
683.42	2205.66
683.62	2271.20
683.81	2228.19
684.00	2332.64
684.20	2269.15
684.39	2183.13
684.58	2254.81
684.77	2238.43
684.97	2232.29
685.16	2226.14
685.35	2258.91
685.55	2267.10
685.74	2230.24
685.93	2287.58
686.12	2308.06
686.32	2203.61
686.51	2310.11
686.70	2211.81
686.90	2277.34
687.09	2238.43
687.28	2291.68
687.47	2316.25
687.67	2256.86
687.86	2342.88
688.05	2277.34
688.25	2242.53
688.44	2279.39
688.63	2273.25
688.82	2273.25
689.02	2344.92
689.21	2275.29
689.40	2275.29
689.59	2297.82
689.79	2324.44
689.98	2318.30
690.17	2344.92
690.36	2312.16
690.56	2316.25
690.75	2326.49
690.94	2248.67
691.13	2326.49
691.33	2281.44
691.52	2269.15
691.71	2263.01
691.90	2303.96
692.10	2209.76
692.29	2258.91
692.48	2246.62
692.67	2228.19
692.87	2181.09
693.06	2267.10
693.25	2320.35
693.44	2269.15
693.64	2275.29
693.83	2291.68
694.02	2228.19
694.21	2185.18
694.40	2314.20
694.60	2189.28
694.79	2129.89
694.98	2256.86
695.17	2303.96
695.37	2324.44
695.56	2291.68
695.75	2228.19
695.94	2340.83
696.13	2220.00
696.33	2258.91
696.52	2299.87
696.71	2285.53
696.90	2238.43
697.10	2297.82
697.29	2238.43
697.48	2283.49
697.67	2279.39
697.86	2277.34
698.06	2144.22
698.25	2242.53
698.44	2246.62
698.63	2287.58
698.82	2240.48
699.02	2242.53
699.21	2209.76
699.40	2355.16
699.59	2254.81
699.78	2279.39
699.98	2273.25
700.17	2250.72
700.36	2244.57
700.55	2162.66
700.74	2351.07
700.93	2246.62
701.13	2213.85
701.32	2306.01
701.51	2353.12
701.70	2353.12
701.89	2179.04
702.09	2254.81
702.28	2220.00
702.47	2250.72
702.66	2293.72
702.85	2230.24
703.04	2154.46
703.24	2260.96
703.43	2187.23
703.62	2260.96
703.81	2246.62
704.00	2256.86
704.19	2314.20
704.39	2176.99
704.58	2267.10
704.77	2275.29
704.96	2209.76
705.15	2250.72
705.34	2336.73
705.54	2240.48
705.73	2267.10
705.92	2168.80
706.11	2334.68
706.30	2320.35
706.49	2291.68
706.68	2246.62
706.88	2275.29
707.07	2265.05
707.26	2377.69
707.45	2205.66
707.64	2260.96
707.83	2303.96
708.02	2363.36
708.22	2342.88
708.41	2420.70
708.60	2254.81
708.79	2263.01
708.98	2330.59
709.17	2377.69
709.36	2283.49
709.55	2310.11
709.75	2263.01
709.94	2250.72
710.13	2244.57
710.32	2328.54
710.51	2328.54
710.70	2213.85
710.89	2185.18
711.08	2283.49
711.27	2265.05
711.47	2217.95
711.66	2277.34
711.85	2326.49
712.04	2203.61
712.23	2211.81
712.42	2209.76
712.61	2185.18
712.80	2248.67
712.99	2269.15
713.19	2168.80
713.38	2187.23
713.57	2230.24
713.76	2283.49
713.95	2209.76
714.14	2220.00
714.33	2234.33
714.52	2232.29
714.71	2197.47
714.90	2246.62
715.09	2289.63
715.28	2254.81
715.48	2373.60
715.67	2299.87
715.86	2342.88
716.05	2211.81
716.24	2328.54
716.43	2205.66
716.62	2336.73
716.81	2283.49
717.00	2385.88
717.19	2201.57
717.38	2242.53
717.57	2316.25
717.76	2293.72
717.96	2275.29
718.15	2082.78
718.34	2217.95
718.53	2258.91
718.72	2230.24
718.91	2230.24
719.10	2273.25
719.29	2312.16
719.48	2244.57
719.67	2291.68
719.86	2349.02
720.05	2326.49
720.24	2297.82
720.43	2271.20
720.62	2275.29
720.81	2299.87
721.00	2283.49
721.19	2287.58
721.38	2254.81
721.57	2195.42
721.77	2330.59
721.96	2090.98
722.15	2332.64
722.34	2269.15
722.53	2246.62
722.72	2220.00
722.91	2246.62
723.10	2301.92
723.29	2250.72
723.48	2287.58
723.67	2275.29
723.86	2242.53
724.05	2211.81
724.24	2234.33
724.43	2357.21
724.62	2254.81
724.81	2258.91
725.00	2342.88
725.19	2217.95
725.38	2338.78
725.57	2234.33
725.76	2320.35
725.95	2170.85
726.14	2383.84
726.33	2205.66
726.52	2242.53
726.71	2267.10
726.90	2230.24
727.09	2322.40
727.28	2213.85
727.47	2279.39
727.66	2240.48
727.85	2211.81
728.04	2228.19
728.23	2303.96
728.42	2357.21
728.61	2324.44
728.80	2293.72
728.99	2168.80
729.18	2324.44
729.37	2267.10
729.56	2349.02
729.75	2273.25
729.94	2275.29
730.13	2275.29
730.32	2279.39
730.51	2379.74
730.70	2355.16
730.89	2191.33
731.08	2371.55
731.27	2228.19
731.46	2201.57
731.65	2299.87
731.84	2242.53
732.03	2236.38
732.21	2279.39
732.40	2291.68
732.59	2289.63
732.78	2269.15
732.97	2285.53
733.16	2179.04
733.35	2250.72
733.54	2250.72
733.73	2299.87
733.92	2217.95
734.11	2267.10
734.30	2344.92
734.49	2236.38
734.68	2297.82
734.87	2275.29
735.06	2295.77
735.25	2230.24
735.44	2297.82
735.63	2287.58
735.81	2430.94
736.00	2349.02
736.19	2275.29
736.38	2435.03
736.57	2324.44
736.76	2349.02
736.95	2240.48
737.14	2158.56
737.33	2213.85
737.52	2265.05
737.71	2244.57
737.90	2250.72
738.09	2224.09
738.28	2250.72
738.46	2250.72
738.65	2238.43
738.84	2209.76
739.03	2320.35
739.22	2256.86
739.41	2398.17
739.60	2299.87
739.79	2271.20
739.98	2093.02
740.17	2156.51
740.36	2340.83
740.54	2246.62
740.73	2201.57
740.92	2279.39
741.11	2273.25
741.30	2406.36
741.49	2201.57
741.68	2250.72
741.87	2244.57
742.06	2308.06
742.24	2340.83
742.43	2248.67
742.62	2277.34
742.81	2365.40
743.00	2297.82
743.19	2203.61
743.38	2199.52
743.57	2344.92
743.76	2201.57
743.94	2283.49
744.13	2209.76
744.32	2287.58
744.51	2183.13
744.70	2189.28
744.89	2201.57
745.08	2217.95
745.26	2248.67
745.45	2246.62
745.64	2213.85
745.83	2301.92
746.02	2256.86
746.21	2285.53
746.40	2230.24
746.58	2205.66
746.77	2254.81
746.96	2250.72
747.15	2263.01
747.34	2389.98
747.53	2306.01
747.72	2131.94
747.90	2265.05
748.09	2158.56
748.28	2258.91
748.47	2279.39
748.66	2207.71
748.85	2273.25
749.03	2279.39
749.22	2195.42
749.41	2203.61
749.60	2189.28
749.79	2295.77
749.98	2238.43
750.16	2330.59
750.35	2285.53
750.54	2183.13
750.73	2226.14
750.92	2314.20
751.11	2234.33
751.29	2236.38
751.48	2226.14
751.67	2267.10
751.86	2131.94
752.05	2187.23
752.24	2254.81
752.42	2277.34
752.61	2209.76
752.80	2234.33
752.99	2146.27
753.18	2211.81
753.36	2314.20
753.55	2316.25
753.74	2308.06
753.93	2277.34
754.12	2250.72
754.30	2195.42
754.49	2254.81
754.68	2312.16
754.87	2258.91
755.06	2160.61
755.24	2209.76
755.43	2213.85
755.62	2275.29
755.81	2197.47
755.99	2303.96
756.18	2279.39
756.37	2152.42
756.56	2260.96
756.75	2283.49
756.93	2260.96
757.12	2230.24
757.31	2258.91
757.50	2234.33
757.68	2217.95
757.87	2211.81
758.06	2295.77
758.25	2238.43
758.44	2189.28
758.62	2162.66
758.81	2197.47
759.00	2254.81
759.19	2277.34
759.37	2271.20
759.56	2148.32
759.75	2222.05
759.94	2230.24
760.12	2332.64
760.31	2152.42
760.50	2232.29
760.69	2285.53
760.87	2209.76
761.06	2258.91
761.25	2275.29
761.44	2193.37
761.62	2242.53
761.81	2150.37
762.00	2205.66
762.19	2340.83
762.37	2201.57
762.56	2220.00
762.75	2242.53
762.94	2224.09
763.12	2263.01
763.31	2318.30
763.50	2242.53
763.68	2164.70
763.87	2170.85
764.06	2242.53
764.25	2113.50
764.43	2291.68
764.62	2142.18
764.81	2119.65
764.99	2220.00
765.18	2263.01
765.37	2170.85
765.56	2217.95
765.74	2287.58
765.93	2176.99
766.12	2174.94
766.30	2189.28
766.49	2209.76
766.68	2176.99
766.87	2271.20
767.05	2254.81
767.24	2242.53
767.43	2328.54
767.61	2185.18
767.80	2183.13
767.99	2176.99
768.17	2291.68
768.36	2283.49
768.55	2197.47
768.73	2336.73
768.92	2238.43
769.11	2234.33
769.30	2170.85
769.48	2174.94
769.67	2193.37
769.86	2209.76
770.04	2172.89
770.23	2131.94
770.42	2258.91
770.60	2174.94
770.79	2146.27
770.98	2162.66
771.16	2199.52
771.35	2213.85
771.54	2170.85
771.72	2160.61
771.91	2131.94
772.10	2187.23
772.28	2168.80
772.47	2185.18
772.66	2228.19
772.84	2181.09
773.03	2140.13
773.22	2230.24
773.40	2138.08
773.59	2107.36
773.77	2068.45
773.96	2217.95
774.15	2189.28
774.33	2127.84
774.52	2176.99
774.71	2256.86
774.89	2197.47
775.08	2150.37
775.27	2179.04
775.45	2234.33
775.64	2150.37
775.83	2203.61
776.01	2101.22
776.20	2185.18
776.38	2189.28
776.57	2181.09
776.76	2207.71
776.94	2215.90
777.13	2295.77
777.32	2166.75
777.50	2056.16
777.69	2156.51
777.87	2156.51
778.06	2097.12
778.25	2191.33
778.43	2189.28
778.62	2172.89
778.80	2146.27
778.99	2166.75
779.18	2246.62
779.36	2068.45
779.55	2129.89
779.73	2185.18
779.92	2068.45
780.11	2281.44
780.29	2176.99
780.48	2105.31
780.66	2111.46
780.85	2062.30
781.04	2138.08
781.22	2217.95
781.41	2189.28
781.59	2168.80
781.78	2162.66
781.97	2211.81
782.15	2148.32
782.34	2168.80
782.52	2185.18
782.71	2154.46
782.89	2144.22
783.08	2168.80
783.27	2181.09
783.45	2111.46
783.64	2205.66
783.82	2209.76
784.01	2189.28
784.19	2090.98
784.38	2138.08
784.57	2080.74
784.75	1957.86
784.94	2131.94
785.12	2211.81
785.31	2217.95
785.49	2162.66
785.68	2127.84
785.86	2144.22
786.05	2068.45
786.24	2146.27
786.42	2090.98
786.61	2052.06
786.79	2086.88
786.98	2111.46
787.16	2164.70
787.35	2201.57
787.53	2170.85
787.72	2080.74
787.90	2138.08
788.09	2123.74
788.28	2197.47
788.46	2074.59
788.65	2195.42
788.83	2176.99
789.02	2172.89
789.20	2244.57
789.39	2213.85
789.57	2123.74
789.76	2150.37
789.94	2105.31
790.13	2246.62
790.31	2111.46
790.50	2170.85
790.68	2220.00
790.87	2121.70
791.05	2136.03
791.24	2199.52
791.42	2152.42
791.61	2084.83
791.79	2068.45
791.98	2097.12
792.16	2166.75
792.35	2101.22
792.53	2226.14
792.72	2158.56
792.90	2158.56
793.09	2127.84
793.27	2168.80
793.46	2129.89
793.64	2242.53
793.83	2148.32
794.01	2179.04
794.20	2168.80
794.38	2127.84
794.57	2193.37
794.75	2121.70
794.94	2072.54
795.12	2160.61
795.31	2113.50
795.49	2111.46
795.68	2191.33
795.86	2187.23
796.05	2144.22
796.23	2152.42
796.42	2207.71
796.60	2070.50
796.78	2121.70
796.97	2217.95
797.15	2009.06
797.34	2086.88
797.52	2230.24
797.71	2164.70
797.89	2045.92
798.08	2136.03
798.26	2125.79
798.45	2119.65
798.63	2088.93
798.81	2093.02
799.00	2090.98
799.18	2136.03
799.37	2123.74
799.55	2111.46
799.74	2103.26
799.92	2123.74
800.11	2138.08
800.29	2127.84
800.47	2111.46
800.66	2154.46
800.84	2162.66
801.03	2162.66
801.21	2195.42
801.40	2154.46
801.58	2078.69
801.76	2181.09
801.95	2082.78
802.13	2144.22
802.32	2205.66
802.50	2123.74
802.69	2088.93
802.87	2136.03
803.05	2215.90
803.24	2136.03
803.42	2164.70
803.61	2031.58
803.79	2054.11
803.97	2187.23
804.16	2107.36
804.34	2062.30
804.53	2099.17
804.71	2062.30
804.89	2230.24
805.08	2097.12
805.26	2189.28
805.45	2131.94
805.63	2138.08
805.81	2070.50
806.00	2181.09
806.18	2076.64
806.37	2232.29
806.55	2133.98
806.73	2152.42
806.92	2230.24
807.10	2088.93
807.28	2176.99
807.47	2131.94
807.65	2080.74
807.84	2160.61
808.02	2103.26
808.20	2160.61
808.39	2187.23
808.57	2101.22
808.75	2045.92
808.94	2166.75
809.12	2183.13
809.31	2086.88
809.49	2047.97
809.67	2144.22
809.86	2109.41
810.04	2099.17
810.22	2142.18
810.41	2027.49
810.59	2119.65
810.77	2056.16
810.96	2164.70
811.14	2070.50
811.32	2131.94
811.51	2217.95
811.69	2131.94
811.87	2136.03
812.06	2095.07
812.24	2047.97
812.42	2183.13
812.61	2144.22
812.79	2144.22
812.97	2121.70
813.16	2058.21
813.34	2158.56
813.52	2107.36
813.71	2121.70
813.89	2037.73
814.07	2021.35
814.26	2156.51
814.44	2133.98
814.62	2189.28
814.81	2125.79
814.99	2136.03
815.17	2467.80
815.36	2119.65
815.54	2023.39
815.72	2117.60
815.91	2072.54
816.09	2047.97
816.27	2164.70
816.45	2078.69
816.64	2068.45
816.82	2050.02
817.00	2133.98
817.19	2150.37
817.37	2088.93
817.55	2148.32
817.74	2123.74
817.92	2052.06
818.10	2105.31
818.28	2133.98
818.47	1986.53
818.65	2080.74
818.83	2099.17
819.02	2258.91
819.20	2074.59
819.38	2082.78
819.56	2052.06
819.75	2093.02
819.93	2170.85
820.11	2062.30
820.29	2052.06
820.48	2131.94
820.66	2076.64
820.84	2047.97
821.03	2097.12
821.21	2140.13
821.39	2150.37
821.57	2043.87
821.76	2056.16
821.94	2133.98
822.12	1972.19
822.30	2056.16
822.49	2047.97
822.67	2084.83
822.85	2076.64
823.03	2144.22
823.22	2009.06
823.40	2086.88
823.58	1980.39
823.76	2111.46
823.95	2068.45
824.13	2021.35
824.31	2062.30
824.49	1996.77
824.68	2086.88
824.86	2002.91
825.04	2185.18
825.22	2082.78
825.40	2050.02
825.59	2064.35
825.77	2078.69
825.95	2025.44
826.13	2025.44
826.32	2056.16
826.50	2123.74
826.68	2080.74
826.86	1974.24
827.04	1996.77
827.23	2070.50
827.41	2095.07
827.59	2027.49
827.77	2013.15
827.95	2043.87
828.14	1988.58
828.32	2029.54
828.50	1996.77
828.68	2068.45
828.86	2060.26
829.05	2000.87
829.23	2035.68
829.41	2062.30
829.59	2066.40
829.77	1955.81
829.96	2131.94
830.14	2062.30
830.32	2007.01
830.50	2090.98
830.68	1984.48
830.87	2154.46
831.05	1992.67
831.23	2127.84
831.41	1976.29
831.59	2086.88
831.77	2086.88
831.96	2035.68
832.14	1996.77
832.32	1949.67
832.50	1914.85
832.68	2045.92
832.86	2058.21
833.05	2138.08
833.23	1998.82
833.41	2115.55
833.59	2041.82
833.77	2058.21
833.95	2009.06
834.14	2103.26
834.32	1953.76
834.50	2074.59
834.68	2093.02
834.86	1992.67
835.04	1966.05
835.22	2086.88
835.41	2019.30
835.59	2070.50
835.77	2037.73
835.95	1943.52
836.13	2105.31
836.31	2031.58
836.49	1996.77
836.67	2068.45
836.86	2076.64
837.04	2013.15
837.22	2050.02
837.40	1998.82
837.58	2045.92
837.76	2056.16
837.94	2013.15
838.12	1998.82
838.31	1945.57
838.49	2021.35
838.67	1986.53
838.85	2090.98
839.03	2115.55
839.21	2015.20
839.39	1972.19
839.57	2054.11
839.75	2002.91
839.94	2021.35
840.12	2066.40
840.30	1998.82
840.48	1974.24
840.66	2060.26
840.84	2072.54
841.02	2045.92
841.20	1961.95
841.38	1986.53
841.56	2037.73
841.74	2015.20
841.93	2070.50
842.11	2064.35
842.29	1933.28
842.47	1974.24
842.65	2101.22
842.83	2093.02
843.01	1955.81
843.19	2068.45
843.37	2090.98
843.55	1941.47
843.73	2015.20
843.91	2007.01
844.09	2002.91
844.28	2045.92
844.46	2021.35
844.64	1964.00
844.82	2025.44
845.00	2037.73
845.18	2054.11
845.36	2029.54
845.54	2037.73
845.72	2021.35
845.90	2021.35
846.08	2002.91
846.26	2000.87
846.44	1959.91
846.62	2093.02
846.80	1925.09
846.98	1886.18
847.16	1951.71
847.34	1931.23
847.52	2009.06
847.70	2095.07
847.88	2013.15
848.07	2033.63
848.25	1984.48
848.43	1976.29
848.61	1918.95
848.79	1996.77
848.97	2025.44
849.15	2033.63
849.33	1951.71
849.51	2045.92
849.69	2080.74
849.87	1912.80
850.05	1925.09
850.23	1906.66
850.41	1957.86
850.59	2037.73
850.77	2027.49
850.95	1957.86
851.13	2013.15
851.31	1898.47
851.49	2043.87
851.67	2007.01
851.85	1923.04
852.03	2127.84
852.21	1992.67
852.39	2011.11
852.57	1970.15
852.75	2007.01
852.93	1957.86
853.11	2136.03
853.29	1961.95
853.47	1998.82
853.65	2027.49
853.83	1935.33
854.01	1953.76
854.19	2029.54
854.37	1968.10
854.55	1982.43
854.73	2021.35
854.91	1955.81
855.08	1970.15
855.26	2045.92
855.44	1920.99
855.62	1925.09
855.80	1910.75
855.98	2027.49
856.16	2013.15
856.34	2058.21
856.52	1947.62
856.70	1984.48
856.88	1970.15
857.06	1982.43
857.24	1875.94
857.42	1990.63
857.60	2000.87
857.78	2002.91
857.96	2095.07
858.14	1988.58
858.32	2021.35
858.50	1931.23
858.68	1980.39
858.85	2019.30
859.03	1959.91
859.21	1972.19
859.39	1914.85
859.57	1916.90
859.75	1974.24
859.93	2015.20
860.11	1904.61
860.29	1929.19
860.47	1894.37
860.65	1982.43
860.83	1990.63
861.01	1992.67
861.18	1927.14
861.36	2000.87
861.54	1953.76
861.72	2072.54
861.90	1959.91
862.08	1988.58
862.26	2011.11
862.44	1933.28
862.62	1910.75
862.80	2062.30
862.98	1941.47
863.15	1949.67
863.33	1984.48
863.51	1961.95
863.69	1939.43
863.87	1964.00
864.05	2041.82
864.23	1968.10
864.41	2029.54
864.59	1945.57
864.76	1947.62
864.94	1880.04
865.12	1978.34
865.30	1888.23
865.48	2004.96
865.66	1951.71
865.84	1914.85
866.02	1947.62
866.19	1955.81
866.37	1918.95
866.55	1925.09
866.73	1988.58
866.91	1953.76
867.09	1996.77
867.27	1898.47
867.44	1929.19
867.62	1888.23
867.80	2031.58
867.98	1933.28
868.16	1925.09
868.34	1976.29
868.52	1970.15
868.69	1920.99
868.87	1935.33
869.05	1939.43
869.23	1996.77
869.41	1970.15
869.59	1920.99
869.76	1964.00
869.94	1918.95
870.12	1988.58
870.30	1912.80
870.48	1955.81
870.66	1884.13
870.83	2021.35
871.01	1959.91
871.19	2095.07
871.37	1994.72
871.55	1830.88
871.73	1925.09
871.90	1798.12
872.08	1951.71
872.26	1933.28
872.44	1914.85
872.62	1918.95
872.79	1882.08
872.97	1990.63
873.15	1939.43
873.33	1869.80
873.51	1880.04
873.68	1931.23
873.86	1927.14
874.04	1947.62
874.22	1945.57
874.40	1914.85
874.57	1882.08
874.75	1996.77
874.93	2000.87
875.11	1945.57
875.29	1933.28
875.46	1933.28
875.64	1927.14
875.82	1882.08
876.00	1957.86
876.17	1935.33
876.35	1877.99
876.53	1910.75
876.71	1953.76
876.89	1931.23
877.06	2015.20
877.24	1968.10
877.42	1910.75
877.60	1947.62
877.77	1912.80
877.95	1992.67
878.13	1888.23
878.31	1972.19
878.48	1900.52
878.66	1933.28
878.84	1900.52
879.02	1914.85
879.19	2000.87
879.37	1920.99
879.55	1927.14
879.73	1890.28
879.90	2033.63
880.08	1933.28
880.26	1957.86
880.44	1861.60
880.61	1914.85
880.79	1898.47
880.97	1910.75
881.15	1900.52
881.32	1832.93
881.50	1882.08
881.68	1865.70
881.85	1992.67
882.03	2004.96
882.21	1877.99
882.39	2011.11
882.56	1884.13
882.74	2029.54
882.92	1972.19
883.09	1988.58
883.27	1918.95
883.45	1908.71
883.63	1949.67
883.80	2017.25
883.98	1904.61
884.16	1939.43
884.33	1974.24
884.51	1857.51
884.69	1935.33
884.87	1906.66
885.04	1900.52
885.22	1914.85
885.40	1937.38
885.57	1849.32
885.75	1937.38
885.93	2017.25
886.10	1925.09
886.28	1886.18
886.46	1865.70
886.63	1923.04
886.81	1931.23
886.99	2035.68
887.16	1853.41
887.34	1859.56
887.52	1972.19
887.69	1959.91
887.87	1886.18
888.05	1925.09
888.22	1935.33
888.40	1957.86
888.58	1953.76
888.75	1955.81
888.93	1877.99
889.11	1808.36
889.28	1886.18
889.46	1798.12
889.64	1978.34
889.81	1888.23
889.99	1834.98
890.17	1959.91
890.34	1918.95
890.52	1943.52
890.70	2009.06
890.87	2011.11
891.05	1966.05
891.22	1937.38
891.40	1894.37
891.58	1964.00
891.75	1834.98
891.93	1900.52
892.11	1929.19
892.28	1861.60
892.46	1951.71
892.63	1859.56
892.81	1890.28
892.99	1861.60
893.16	1859.56
893.34	1849.32
893.52	1898.47
893.69	2023.39
893.87	1865.70
894.04	2027.49
894.22	1834.98
894.40	1916.90
894.57	1951.71
894.75	1939.43
894.92	1947.62
895.10	1871.84
895.28	1923.04
895.45	1947.62
895.63	1984.48
895.80	1892.32
895.98	1882.08
896.16	1900.52
896.33	1966.05
896.51	1853.41
896.68	1988.58
896.86	1865.70
897.04	1923.04
897.21	1959.91
897.39	1914.85
897.56	1873.89
897.74	1949.67
897.91	1943.52
898.09	1972.19
898.27	1947.62
898.44	1873.89
898.62	1902.56
898.79	1820.64
898.97	1877.99
899.14	1875.94
899.32	1841.12
899.49	1935.33
899.67	1945.57
899.85	1816.55
900.02	1988.58
900.20	1871.84
900.37	1951.71
900.55	1839.08
900.72	1906.66
900.90	1920.99
901.07	1929.19
901.25	1918.95
901.43	1976.29
901.60	1853.41
901.78	1873.89
901.95	1910.75
902.13	1892.32
902.30	1929.19
902.48	1877.99
902.65	1777.64
902.83	1900.52
903.00	1920.99
903.18	1810.40
903.35	1888.23
903.53	1927.14
903.70	1931.23
903.88	1951.71
904.05	1826.79
904.23	1877.99
904.40	1820.64
904.58	1837.03
904.75	1939.43
904.93	1851.36
905.10	1902.56
905.28	1927.14
905.45	1873.89
905.63	1920.99
905.80	1877.99
905.98	2023.39
906.15	1853.41
906.33	1906.66
906.50	1916.90
906.68	1898.47
906.85	1863.65
907.03	1861.60
907.20	1906.66
907.38	1929.19
907.55	1843.17
907.73	1914.85
907.90	1808.36
908.08	1904.61
908.25	1857.51
908.43	1769.44
908.60	1925.09
908.78	1949.67
908.95	1771.49
909.13	1886.18
909.30	1828.84
909.47	1839.08
909.65	1939.43
909.82	1861.60
910.00	1812.45
910.17	1857.51
910.35	1759.21
910.52	1869.80
910.70	1894.37
910.87	1916.90
911.05	1873.89
911.22	1902.56
911.39	1851.36
911.57	1898.47
911.74	1853.41
911.92	1863.65
912.09	1916.90
912.27	1902.56
912.44	1884.13
912.61	1888.23
912.79	1892.32
912.96	1820.64
913.14	1837.03
913.31	1845.22
913.49	1802.21
913.66	1853.41
913.83	1886.18
914.01	1853.41
914.18	1832.93
914.36	1832.93
914.53	1810.40
914.70	1822.69
914.88	1884.13
915.05	1867.75
915.23	1816.55
915.40	1839.08
915.58	1869.80
915.75	1818.60
915.92	1839.08
916.10	1996.77
916.27	1865.70
916.44	1732.58
916.62	1894.37
916.79	1873.89
916.97	1855.46
917.14	1818.60
917.31	1847.27
917.49	1859.56
917.66	1865.70
917.84	1959.91
918.01	1796.07
918.18	1902.56
918.36	1816.55
918.53	1916.90
918.70	1849.32
918.88	1861.60
919.05	1705.96
919.23	1861.60
919.40	1808.36
919.57	1839.08
919.75	1769.44
919.92	1781.73
920.09	1783.78
920.27	1910.75
920.44	1808.36
920.61	1955.81
920.79	1890.28
920.96	1751.01
921.13	1882.08
921.31	1781.73
921.48	1853.41
921.65	1871.84
921.83	1806.31
922.00	1884.13
922.17	1814.50
922.35	1775.59
922.52	1777.64
922.69	1796.07
922.87	1810.40
923.04	1757.16
923.21	1787.88
923.39	1832.93
923.56	1787.88
923.73	1808.36
923.91	1820.64
924.08	1767.40
924.25	1853.41
924.43	1814.50
924.60	1785.83
924.77	1859.56
924.95	1779.68
925.12	1781.73
925.29	1830.88
925.47	1812.45
925.64	1832.93
925.81	1746.92
925.98	1751.01
926.16	1843.17
926.33	1886.18
926.50	1771.49
926.68	1867.75
926.85	1875.94
927.02	1726.44
927.19	1826.79
927.37	1728.49
927.54	1746.92
927.71	1890.28
927.89	1757.16
928.06	1791.97
928.23	1816.55
928.40	1851.36
928.58	1814.50
928.75	1794.02
928.92	1808.36
929.09	1834.98
929.27	1826.79
929.44	1804.26
929.61	1742.82
929.79	1841.12
929.96	1728.49
930.13	1744.87
930.30	1918.95
930.48	1757.16
930.65	1726.44
930.82	1744.87
930.99	1859.56
931.17	1820.64
931.34	1845.22
931.51	1818.60
931.68	1757.16
931.85	1791.97
932.03	1812.45
932.20	1794.02
932.37	1818.60
932.54	1783.78
932.72	1855.46
932.89	1746.92
933.06	1767.40
933.23	1892.32
933.41	1863.65
933.58	1812.45
933.75	1763.30
933.92	1730.53
934.09	1798.12
934.27	1759.21
934.44	1777.64
934.61	1808.36
934.78	1669.09
934.95	1744.87
935.13	1759.21
935.30	1742.82
935.47	1763.30
935.64	1761.25
935.81	1687.53
935.99	1748.97
936.16	1701.86
936.33	1728.49
936.50	1730.53
936.67	1728.49
936.85	1761.25
937.02	1708.01
937.19	1757.16
937.36	1820.64
937.53	1798.12
937.71	1763.30
937.88	1746.92
938.05	1789.92
938.22	1787.88
938.39	1753.06
938.56	1708.01
938.74	1810.40
938.91	1712.10
939.08	1714.15
939.25	1740.77
939.42	1685.48
939.59	1785.83
939.77	1730.53
939.94	1722.34
940.11	1746.92
940.28	1726.44
940.45	1771.49
940.62	1738.73
940.79	1812.45
940.97	1732.58
941.14	1677.29
941.31	1740.77
941.48	1853.41
941.65	1781.73
941.82	1722.34
941.99	1779.68
942.17	1802.21
942.34	1693.67
942.51	1779.68
942.68	1744.87
942.85	1689.57
943.02	1748.97
943.19	1808.36
943.36	1769.44
943.54	1710.05
943.71	1746.92
943.88	1832.93
944.05	1746.92
944.22	1740.77
944.39	1712.10
944.56	1775.59
944.73	1753.06
944.90	1677.29
945.08	1775.59
945.25	1693.67
945.42	1771.49
945.59	1753.06
945.76	1718.25
945.93	1714.15
946.10	1800.16
946.27	1751.01
946.44	1734.63
946.61	1742.82
946.78	1697.77
946.96	1732.58
947.13	1779.68
947.30	1712.10
947.47	1720.29
947.64	1732.58
947.81	1759.21
947.98	1751.01
948.15	1718.25
948.32	1705.96
948.49	1693.67
948.66	1746.92
948.83	1761.25
949.00	1773.54
949.17	1783.78
949.35	1712.10
949.52	1652.71
949.69	1646.57
949.86	1761.25
950.03	1609.70
950.20	1714.15
950.37	1734.63
950.54	1726.44
950.71	1687.53
950.88	1705.96
951.05	1726.44
951.22	1732.58
951.39	1755.11
951.56	1744.87
951.73	1619.94
951.90	1687.53
952.07	1685.48
952.24	1771.49
952.41	1705.96
952.58	1759.21
952.75	1722.34
952.92	1701.86
953.09	1744.87
953.26	1763.30
953.43	1775.59
953.60	1695.72
953.77	1728.49
953.94	1724.39
954.11	1800.16
954.28	1693.67
954.45	1755.11
954.62	1734.63
954.79	1687.53
954.96	1648.61
955.13	1730.53
955.30	1728.49
955.47	1710.05
955.64	1761.25
955.81	1658.85
955.98	1759.21
956.15	1746.92
956.32	1777.64
956.49	1744.87
956.66	1771.49
956.83	1730.53
957.00	1665.00
957.17	1722.34
957.34	1681.38
957.51	1685.48
957.68	1718.25
957.85	1726.44
958.02	1714.15
958.19	1732.58
958.36	1648.61
958.53	1675.24
958.70	1677.29
958.87	1718.25
959.04	1699.81
959.21	1658.85
959.38	1677.29
959.55	1746.92
959.72	1728.49
959.89	1640.42
960.06	1724.39
960.23	1763.30
960.39	1714.15
960.56	1687.53
960.73	1660.90
960.90	1595.37
961.07	1736.68
961.24	1636.33
961.41	1665.00
961.58	1685.48
961.75	1748.97
961.92	1660.90
962.09	1775.59
962.26	1656.81
962.43	1656.81
962.60	1677.29
962.76	1710.05
962.93	1677.29
963.10	1701.86
963.27	1685.48
963.44	1669.09
963.61	1689.57
963.78	1767.40
963.95	1658.85
964.12	1679.33
964.29	1638.38
964.46	1681.38
964.62	1691.62
964.79	1730.53
964.96	1585.13
965.13	1662.95
965.30	1646.57
965.47	1726.44
965.64	1722.34
965.81	1742.82
965.98	1775.59
966.14	1761.25
966.31	1685.48
966.48	1677.29
966.65	1695.72
966.82	1656.81
966.99	1685.48
967.16	1695.72
967.33	1726.44
967.49	1648.61
967.66	1703.91
967.83	1673.19
968.00	1687.53
968.17	1693.67
968.34	1683.43
968.51	1736.68
968.67	1697.77
968.84	1624.04
969.01	1705.96
969.18	1812.45
969.35	1642.47
969.52	1669.09
969.68	1685.48
969.85	1671.14
970.02	1710.05
970.19	1718.25
970.36	1718.25
970.53	1765.35
970.69	1679.33
970.86	1693.67
971.03	1628.14
971.20	1759.21
971.37	1611.75
971.54	1660.90
971.70	1662.95
971.87	1636.33
972.04	1763.30
972.21	1771.49
972.38	1736.68
972.55	1718.25
972.71	1654.76
972.88	1578.98
973.05	1660.90
973.22	1693.67
973.39	1732.58
973.55	1652.71
973.72	1814.50
973.89	1701.86
974.06	1669.09
974.23	1675.24
974.39	1660.90
974.56	1660.90
974.73	1646.57
974.90	1703.91
975.06	1677.29
975.23	1712.10
975.40	1624.04
975.57	1748.97
975.74	1732.58
975.90	1650.66
976.07	1665.00
976.24	1605.61
976.41	1652.71
976.57	1681.38
976.74	1699.81
976.91	1697.77
977.08	1710.05
977.24	1628.14
977.41	1699.81
977.58	1708.01
977.75	1677.29
977.92	1603.56
978.08	1693.67
978.25	1630.18
978.42	1697.77
978.58	1701.86
978.75	1615.85
978.92	1636.33
979.09	1632.23
979.25	1689.57
979.42	1667.05
979.59	1617.90
979.76	1679.33
979.92	1683.43
980.09	1695.72
980.26	1624.04
980.43	1648.61
980.59	1630.18
980.76	1652.71
980.93	1646.57
981.09	1646.57
981.26	1669.09
981.43	1693.67
981.60	1701.86
981.76	1591.27
981.93	1640.42
982.10	1634.28
982.26	1669.09
982.43	1650.66
982.60	1603.56
982.77	1644.52
982.93	1744.87
983.10	1701.86
983.27	1777.64
983.43	1656.81
983.60	1679.33
983.77	1660.90
983.93	1613.80
984.10	1662.95
984.27	1685.48
984.43	1644.52
984.60	1685.48
984.77	1714.15
984.93	1648.61
985.10	1658.85
985.27	1687.53
985.43	1540.07
985.60	1744.87
985.77	1630.18
985.93	1685.48
986.10	1578.98
986.27	1658.85
986.43	1726.44
986.60	1611.75
986.77	1675.24
986.93	1660.90
987.10	1685.48
987.27	1652.71
987.43	1609.70
987.60	1681.38
987.77	1712.10
987.93	1705.96
988.10	1613.80
988.27	1595.37
988.43	1636.33
988.60	1619.94
988.76	1728.49
988.93	1710.05
989.10	1621.99
989.26	1652.71
989.43	1640.42
989.60	1634.28
989.76	1609.70
989.93	1671.14
990.09	1560.55
990.26	1621.99
990.43	1660.90
990.59	1646.57
990.76	1607.66
990.92	1640.42
991.09	1607.66
991.26	1685.48
991.42	1593.32
991.59	1681.38
991.76	1593.32
991.92	1679.33
992.09	1603.56
992.25	1724.39
992.42	1646.57
992.58	1599.46
992.75	1652.71
992.92	1683.43
993.08	1662.95
993.25	1642.47
993.41	1685.48
993.58	1695.72
993.75	1681.38
993.91	1679.33
994.08	1679.33
994.24	1656.81
994.41	1619.94
994.57	1605.61
994.74	1630.18
994.91	1658.85
995.07	1677.29
995.24	1648.61
995.40	1597.42
995.57	1609.70
995.73	1589.22
995.90	1636.33
996.06	1710.05
996.23	1718.25
996.40	1660.90
996.56	1712.10
996.73	1640.42
996.89	1675.24
997.06	1558.50
997.22	1701.86
997.39	1628.14
997.55	1632.23
997.72	1673.19
997.88	1597.42
998.05	1626.09
998.21	1650.66
998.38	1605.61
998.54	1615.85
998.71	1724.39
998.87	1712.10
999.04	1599.46
999.21	1701.86
999.37	1677.29
999.54	1732.58
999.70	1607.66
999.87	1689.57
1000.03	1701.86
1000.20	1558.50
1000.36	1632.23
1000.53	1640.42
1000.69	1578.98
1000.86	1619.94
1001.02	1626.09
1001.19	1662.95
1001.35	1587.18
1001.52	1689.57
1001.68	1583.08
1001.84	1624.04
1002.01	1646.57
1002.17	1632.23
1002.34	1480.68
1002.50	1673.19
1002.67	1646.57
1002.83	1681.38
1003.00	1599.46
1003.16	1658.85
1003.33	1660.90
1003.49	1697.77
1003.66	1621.99
1003.82	1554.41
1003.99	1562.60
1004.15	1576.94
1004.32	1548.26
1004.48	1648.61
1004.64	1632.23
1004.81	1710.05
1004.97	1722.34
1005.14	1693.67
1005.30	1615.85
1005.47	1669.09
1005.63	1665.00
1005.80	1683.43
1005.96	1564.65
1006.12	1597.42
1006.29	1607.66
1006.45	1699.81
1006.62	1581.03
1006.78	1603.56
1006.95	1644.52
1007.11	1542.12
1007.27	1681.38
1007.44	1660.90
1007.60	1581.03
1007.77	1738.73
1007.93	1589.22
1008.09	1605.61
1008.26	1638.38
1008.42	1734.63
1008.59	1624.04
1008.75	1603.56
1008.92	1603.56
1009.08	1693.67
1009.24	1775.59
1009.41	1554.41
1009.57	1597.42
1009.73	1693.67
1009.90	1652.71
1010.06	1720.29
1010.23	1642.47
1010.39	1607.66
1010.55	1630.18
1010.72	1667.05
1010.88	1654.76
1011.05	1617.90
1011.21	1550.31
1011.37	1617.90
1011.54	1685.48
1011.70	1669.09
1011.86	1581.03
1012.03	1669.09
1012.19	1675.24
1012.36	1648.61
1012.52	1718.25
1012.68	1654.76
1012.85	1628.14
1013.01	1587.18
1013.17	1560.55
1013.34	1570.79
1013.50	1576.94
1013.66	1572.84
1013.83	1603.56
1013.99	1589.22
1014.15	1593.32
1014.32	1613.80
1014.48	1574.89
1014.64	1628.14
1014.81	1570.79
1014.97	1609.70
1015.13	1626.09
1015.30	1640.42
1015.46	1521.64
1015.62	1734.63
1015.79	1546.22
1015.95	1628.14
1016.11	1554.41
1016.28	1656.81
1016.44	1593.32
1016.60	1564.65
1016.77	1652.71
1016.93	1550.31
1017.09	1677.29
1017.26	1546.22
1017.42	1593.32
1017.58	1609.70
1017.74	1687.53
1017.91	1587.18
1018.07	1624.04
1018.23	1552.36
1018.40	1595.37
1018.56	1595.37
1018.72	1566.70
1018.88	1611.75
1019.05	1566.70
1019.21	1597.42
1019.37	1593.32
1019.54	1572.84
1019.70	1665.00
1019.86	1621.99
1020.02	1671.14
1020.19	1595.37
1020.35	1568.74
1020.51	1648.61
1020.68	1554.41
1020.84	1574.89
1021.00	1619.94
1021.16	1638.38
1021.33	1617.90
1021.49	1683.43
1021.65	1556.46
1021.81	1550.31
1021.98	1646.57
1022.14	1648.61
1022.30	1658.85
1022.46	1634.28
1022.63	1535.98
1022.79	1603.56
1022.95	1578.98
1023.11	1603.56
1023.27	1685.48
1023.44	1705.96
1023.60	1613.80
1023.76	1599.46
1023.92	1755.11
1024.09	1632.23
1024.25	1654.76
1024.41	1679.33
1024.57	1693.67
1024.74	1542.12
1024.90	1574.89
1025.06	1705.96
1025.22	1578.98
1025.38	1525.74
1025.55	1595.37
1025.71	1605.61
1025.87	1601.51
1026.03	1581.03
1026.19	1570.79
1026.36	1554.41
1026.52	1644.52
1026.68	1599.46
1026.84	1503.21
1027.00	1546.22
1027.17	1669.09
1027.33	1538.02
1027.49	1685.48
1027.65	1646.57
1027.81	1589.22
1027.97	1624.04
1028.14	1658.85
1028.30	1644.52
1028.46	1660.90
1028.62	1632.23
1028.78	1636.33
1028.94	1576.94
1029.11	1630.18
1029.27	1570.79
1029.43	1628.14
1029.59	1665.00
1029.75	1576.94
1029.91	1574.89
1030.08	1718.25
1030.24	1513.45
1030.40	1597.42
1030.56	1587.18
1030.72	1576.94
1030.88	1665.00
1031.04	1587.18
1031.21	1562.60
1031.37	1687.53
1031.53	1591.27
1031.69	1640.42
1031.85	1626.09
1032.01	1570.79
1032.17	1613.80
1032.34	1642.47
1032.50	1619.94
1032.66	1507.30
1032.82	1642.47
1032.98	1587.18
1033.14	1636.33
1033.30	1529.83
1033.46	1654.76
1033.62	1607.66
1033.79	1570.79
1033.95	1593.32
1034.11	1597.42
1034.27	1626.09
1034.43	1611.75
1034.59	1572.84
1034.75	1632.23
1034.91	1619.94
1035.07	1636.33
1035.23	1685.48
1035.40	1599.46
1035.56	1648.61
1035.72	1591.27
1035.88	1595.37
1036.04	1611.75
1036.20	1634.28
>>>>>End Processed Spectral Data<<<<<
