SpectraSuite Data File
++++++++++++++++++++++++++++++++++++
Date: Fri May 12 15:40:23 EDT 2017
User: jcherston
Dark Spectrum Present: Yes
Reference Spectrum Present: Yes
Number of Sampled Component Spectra: 1
Spectrometers: USB4F06975
Integration Time (usec): 100000 (USB4F06975)
Spectra Averaged: 1 (USB4F06975)
Boxcar Smoothing: 0 (USB4F06975)
Correct for Electrical Dark: No (USB4F06975)
Strobe/Lamp Enabled: No (USB4F06975)
Correct for Detector Non-linearity: No (USB4F06975)
Correct for Stray Light: No (USB4F06975)
Number of Pixels in Processed Spectrum: 3648
>>>>>Begin Processed Spectral Data<<<<<
346.57	1540.07
346.78	1540.07
346.99	1540.07
347.20	1466.35
347.41	1468.39
347.62	1640.42
347.83	1548.26
348.04	1587.18
348.25	1607.66
348.46	1624.04
348.67	1619.94
348.88	1601.51
349.09	1564.65
349.30	1595.37
349.51	1505.26
349.72	1619.94
349.93	1564.65
350.14	1587.18
350.35	1558.50
350.56	1658.85
350.77	1724.39
350.98	1619.94
351.19	1638.38
351.40	1624.04
351.61	1605.61
351.82	1568.74
352.03	1525.74
352.24	1638.38
352.45	1587.18
352.66	1642.47
352.87	1636.33
353.08	1599.46
353.29	1611.75
353.50	1673.19
353.71	1619.94
353.92	1624.04
354.13	1566.70
354.34	1581.03
354.55	1548.26
354.76	1531.88
354.97	1662.95
355.18	1630.18
355.39	1544.17
355.60	1665.00
355.80	1587.18
356.01	1521.64
356.22	1601.51
356.43	1646.57
356.64	1638.38
356.85	1595.37
357.06	1587.18
357.27	1609.70
357.48	1660.90
357.69	1609.70
357.90	1603.56
358.11	1572.84
358.32	1501.16
358.53	1570.79
358.74	1603.56
358.95	1572.84
359.16	1599.46
359.37	1554.41
359.58	1705.96
359.79	1568.74
360.00	1640.42
360.21	1656.81
360.42	1550.31
360.63	1550.31
360.84	1630.18
361.05	1568.74
361.26	1566.70
361.46	1595.37
361.67	1656.81
361.88	1669.09
362.09	1585.13
362.30	1609.70
362.51	1632.23
362.72	1591.27
362.93	1550.31
363.14	1617.90
363.35	1611.75
363.56	1644.52
363.77	1607.66
363.98	1587.18
364.19	1726.44
364.40	1519.59
364.61	1529.83
364.82	1558.50
365.03	1619.94
365.24	1613.80
365.44	1531.88
365.65	1574.89
365.86	1683.43
366.07	1658.85
366.28	1609.70
366.49	1646.57
366.70	1636.33
366.91	1693.67
367.12	1566.70
367.33	1636.33
367.54	1617.90
367.75	1603.56
367.96	1552.36
368.17	1578.98
368.38	1615.85
368.58	1613.80
368.79	1638.38
369.00	1626.09
369.21	1626.09
369.42	1599.46
369.63	1667.05
369.84	1560.55
370.05	1619.94
370.26	1574.89
370.47	1593.32
370.68	1648.61
370.89	1523.69
371.09	1544.17
371.30	1646.57
371.51	1556.46
371.72	1572.84
371.93	1603.56
372.14	1613.80
372.35	1628.14
372.56	1611.75
372.77	1525.74
372.98	1619.94
373.19	1578.98
373.40	1636.33
373.60	1581.03
373.81	1636.33
374.02	1542.12
374.23	1552.36
374.44	1564.65
374.65	1595.37
374.86	1609.70
375.07	1607.66
375.28	1636.33
375.49	1599.46
375.69	1646.57
375.90	1619.94
376.11	1589.22
376.32	1585.13
376.53	1556.46
376.74	1615.85
376.95	1617.90
377.16	1554.41
377.37	1601.51
377.58	1527.78
377.78	1581.03
377.99	1597.42
378.20	1636.33
378.41	1652.71
378.62	1654.76
378.83	1589.22
379.04	1673.19
379.25	1656.81
379.46	1609.70
379.66	1603.56
379.87	1591.27
380.08	1638.38
380.29	1554.41
380.50	1636.33
380.71	1558.50
380.92	1570.79
381.13	1644.52
381.33	1572.84
381.54	1699.81
381.75	1669.09
381.96	1527.78
382.17	1593.32
382.38	1634.28
382.59	1654.76
382.80	1597.42
383.00	1609.70
383.21	1638.38
383.42	1617.90
383.63	1529.83
383.84	1630.18
384.05	1669.09
384.26	1599.46
384.47	1660.90
384.67	1638.38
384.88	1603.56
385.09	1597.42
385.30	1712.10
385.51	1607.66
385.72	1595.37
385.93	1574.89
386.13	1535.98
386.34	1533.93
386.55	1607.66
386.76	1603.56
386.97	1632.23
387.18	1611.75
387.39	1544.17
387.59	1525.74
387.80	1660.90
388.01	1710.05
388.22	1660.90
388.43	1626.09
388.64	1589.22
388.85	1638.38
389.05	1605.61
389.26	1652.71
389.47	1587.18
389.68	1652.71
389.89	1581.03
390.10	1648.61
390.31	1595.37
390.51	1587.18
390.72	1677.29
390.93	1542.12
391.14	1578.98
391.35	1626.09
391.56	1603.56
391.76	1656.81
391.97	1638.38
392.18	1644.52
392.39	1642.47
392.60	1679.33
392.81	1542.12
393.01	1611.75
393.22	1595.37
393.43	1619.94
393.64	1562.60
393.85	1599.46
394.06	1638.38
394.26	1652.71
394.47	1581.03
394.68	1712.10
394.89	1572.84
395.10	1587.18
395.31	1683.43
395.51	1595.37
395.72	1523.69
395.93	1615.85
396.14	1554.41
396.35	1652.71
396.55	1546.22
396.76	1611.75
396.97	1644.52
397.18	1544.17
397.39	1601.51
397.60	1564.65
397.80	1615.85
398.01	1570.79
398.22	1658.85
398.43	1626.09
398.64	1492.97
398.84	1525.74
399.05	1585.13
399.26	1644.52
399.47	1523.69
399.68	1574.89
399.88	1652.71
400.09	1603.56
400.30	1587.18
400.51	1568.74
400.72	1628.14
400.92	1613.80
401.13	1626.09
401.34	1581.03
401.55	1693.67
401.76	1578.98
401.96	1595.37
402.17	1652.71
402.38	1640.42
402.59	1658.85
402.80	1970.15
403.00	1634.28
403.21	1578.98
403.42	1574.89
403.63	1558.50
403.84	1597.42
404.04	1644.52
404.25	1583.08
404.46	1550.31
404.67	1601.51
404.88	1630.18
405.08	1658.85
405.29	1587.18
405.50	1665.00
405.71	1570.79
405.91	1587.18
406.12	1566.70
406.33	1578.98
406.54	1630.18
406.75	1578.98
406.95	1552.36
407.16	1589.22
407.37	1535.98
407.58	1601.51
407.78	1906.66
407.99	1564.65
408.20	1521.64
408.41	1675.24
408.62	1552.36
408.82	1613.80
409.03	1626.09
409.24	1638.38
409.45	1570.79
409.65	1611.75
409.86	1611.75
410.07	1552.36
410.28	1597.42
410.48	1654.76
410.69	1583.08
410.90	1611.75
411.11	1714.15
411.31	1669.09
411.52	1636.33
411.73	1591.27
411.94	1574.89
412.14	1589.22
412.35	1607.66
412.56	1560.55
412.77	1531.88
412.98	1505.26
413.18	1550.31
413.39	1673.19
413.60	1693.67
413.81	1572.84
414.01	1595.37
414.22	1654.76
414.43	1505.26
414.64	1572.84
414.84	1621.99
415.05	1554.41
415.26	1685.48
415.46	1603.56
415.67	1597.42
415.88	1548.26
416.09	1538.02
416.29	1585.13
416.50	1585.13
416.71	1593.32
416.92	1609.70
417.12	1599.46
417.33	1601.51
417.54	1654.76
417.75	1574.89
417.95	1601.51
418.16	1636.33
418.37	1591.27
418.58	1630.18
418.78	1613.80
418.99	1583.08
419.20	1546.22
419.40	1574.89
419.61	1527.78
419.82	1603.56
420.03	1554.41
420.23	1624.04
420.44	1527.78
420.65	1619.94
420.85	1591.27
421.06	1599.46
421.27	1585.13
421.48	1665.00
421.68	1654.76
421.89	1599.46
422.10	1595.37
422.30	1669.09
422.51	1548.26
422.72	1581.03
422.93	1578.98
423.13	1529.83
423.34	1697.77
423.55	1617.90
423.75	1613.80
423.96	1636.33
424.17	1513.45
424.38	1681.38
424.58	1572.84
424.79	1613.80
425.00	1578.98
425.20	1583.08
425.41	1650.66
425.62	1640.42
425.83	1587.18
426.03	1578.98
426.24	1619.94
426.45	1556.46
426.65	1581.03
426.86	1521.64
427.07	1636.33
427.27	1671.14
427.48	1619.94
427.69	1533.93
427.89	1513.45
428.10	1626.09
428.31	1578.98
428.52	1638.38
428.72	1621.99
428.93	1605.61
429.14	1640.42
429.34	1531.88
429.55	1673.19
429.76	1640.42
429.96	1660.90
430.17	1660.90
430.38	1658.85
430.58	1533.93
430.79	1593.32
431.00	1533.93
431.20	1624.04
431.41	1619.94
431.62	1689.57
431.82	1603.56
432.03	1560.55
432.24	1611.75
432.44	1665.00
432.65	1499.11
432.86	1619.94
433.06	1607.66
433.27	1671.14
433.48	1685.48
433.68	1562.60
433.89	1568.74
434.10	1658.85
434.30	1621.99
434.51	1597.42
434.72	1630.18
434.92	1570.79
435.13	1597.42
435.34	1578.98
435.54	1556.46
435.75	1660.90
435.96	1593.32
436.16	1669.09
436.37	1546.22
436.58	1523.69
436.78	1681.38
436.99	1621.99
437.20	1619.94
437.40	1701.86
437.61	1654.76
437.82	1591.27
438.02	1628.14
438.23	1619.94
438.43	1644.52
438.64	1611.75
438.85	1640.42
439.05	1578.98
439.26	1679.33
439.47	1669.09
439.67	1636.33
439.88	1595.37
440.09	1581.03
440.29	1640.42
440.50	1583.08
440.71	1562.60
440.91	1570.79
441.12	1515.50
441.32	1574.89
441.53	1603.56
441.74	1617.90
441.94	1546.22
442.15	1476.59
442.36	1662.95
442.56	1605.61
442.77	1607.66
442.97	1533.93
443.18	1759.21
443.39	1576.94
443.59	1613.80
443.80	1638.38
444.01	1640.42
444.21	1624.04
444.42	1538.02
444.62	1533.93
444.83	1558.50
445.04	1581.03
445.24	1607.66
445.45	1630.18
445.66	1665.00
445.86	1628.14
446.07	1630.18
446.27	1576.94
446.48	1572.84
446.69	1548.26
446.89	1675.24
447.10	1591.27
447.30	1556.46
447.51	1644.52
447.72	1712.10
447.92	1679.33
448.13	1568.74
448.33	1640.42
448.54	1597.42
448.75	1566.70
448.95	1660.90
449.16	1554.41
449.36	1621.99
449.57	1656.81
449.78	1744.87
449.98	1589.22
450.19	1509.35
450.39	1669.09
450.60	1593.32
450.81	1646.57
451.01	1568.74
451.22	1660.90
451.42	1525.74
451.63	1558.50
451.84	1562.60
452.04	1617.90
452.25	1617.90
452.45	1619.94
452.66	1552.36
452.86	1552.36
453.07	1550.31
453.28	1574.89
453.48	1650.66
453.69	1640.42
453.89	1611.75
454.10	1714.15
454.30	1544.17
454.51	1505.26
454.72	1607.66
454.92	1603.56
455.13	1617.90
455.33	1583.08
455.54	1599.46
455.74	1591.27
455.95	1636.33
456.16	1617.90
456.36	1599.46
456.57	1609.70
456.77	1673.19
456.98	1644.52
457.18	1599.46
457.39	1638.38
457.60	1628.14
457.80	1714.15
458.01	1597.42
458.21	1597.42
458.42	1662.95
458.62	1675.24
458.83	1550.31
459.03	1617.90
459.24	1671.14
459.45	1617.90
459.65	1552.36
459.86	1552.36
460.06	1570.79
460.27	1603.56
460.47	1574.89
460.68	1546.22
460.88	1671.14
461.09	1718.25
461.30	1667.05
461.50	1632.23
461.71	1654.76
461.91	1597.42
462.12	1578.98
462.32	1585.13
462.53	1531.88
462.73	1554.41
462.94	1767.40
463.14	1599.46
463.35	1589.22
463.55	1679.33
463.76	1630.18
463.96	1640.42
464.17	1626.09
464.38	1578.98
464.58	1574.89
464.79	1607.66
464.99	1640.42
465.20	1644.52
465.40	1617.90
465.61	1574.89
465.81	1589.22
466.02	1644.52
466.22	1621.99
466.43	1603.56
466.63	1599.46
466.84	1619.94
467.04	1552.36
467.25	1644.52
467.45	1638.38
467.66	1677.29
467.86	1667.05
468.07	1615.85
468.27	1572.84
468.48	1562.60
468.68	1658.85
468.89	1609.70
469.09	1601.51
469.30	1630.18
469.51	1681.38
469.71	1640.42
469.92	1603.56
470.12	1589.22
470.33	1597.42
470.53	1597.42
470.74	1599.46
470.94	1662.95
471.15	1599.46
471.35	1914.85
471.56	1638.38
471.76	1544.17
471.97	1556.46
472.17	1601.51
472.38	1648.61
472.58	1660.90
472.78	1552.36
472.99	1624.04
473.19	1636.33
473.40	1548.26
473.60	1728.49
473.81	1519.59
474.01	1665.00
474.22	1660.90
474.42	1617.90
474.63	1640.42
474.83	1587.18
475.04	1660.90
475.24	1646.57
475.45	1660.90
475.65	1621.99
475.86	1540.07
476.06	1578.98
476.27	1533.93
476.47	1628.14
476.68	1673.19
476.88	1644.52
477.09	1615.85
477.29	1581.03
477.50	1613.80
477.70	1667.05
477.90	1480.68
478.11	1597.42
478.31	1701.86
478.52	1617.90
478.72	1564.65
478.93	1550.31
479.13	1669.09
479.34	1648.61
479.54	1521.64
479.75	1636.33
479.95	1595.37
480.16	1632.23
480.36	1605.61
480.56	1628.14
480.77	1624.04
480.97	1767.40
481.18	1617.90
481.38	1695.72
481.59	1624.04
481.79	1611.75
482.00	1611.75
482.20	1685.48
482.41	1808.36
482.61	1642.47
482.81	1714.15
483.02	1624.04
483.22	1570.79
483.43	1675.24
483.63	1648.61
483.84	1531.88
484.04	1615.85
484.24	1507.30
484.45	1581.03
484.65	1589.22
484.86	1638.38
485.06	1624.04
485.27	1640.42
485.47	1642.47
485.68	1597.42
485.88	1597.42
486.08	1607.66
486.29	1679.33
486.49	1630.18
486.70	1589.22
486.90	1599.46
487.11	1712.10
487.31	1662.95
487.51	1628.14
487.72	1654.76
487.92	1583.08
488.13	1687.53
488.33	1593.32
488.53	1605.61
488.74	1726.44
488.94	1599.46
489.15	1630.18
489.35	1669.09
489.56	1558.50
489.76	1660.90
489.96	1646.57
490.17	1667.05
490.37	1705.96
490.58	1679.33
490.78	1578.98
490.98	1605.61
491.19	1675.24
491.39	1650.66
491.60	1656.81
491.80	1626.09
492.00	1585.13
492.21	1675.24
492.41	1667.05
492.62	1581.03
492.82	1632.23
493.02	1624.04
493.23	1691.62
493.43	1665.00
493.64	1654.76
493.84	1636.33
494.04	1753.06
494.25	1654.76
494.45	1613.80
494.66	1730.53
494.86	1691.62
495.06	1615.85
495.27	1726.44
495.47	1718.25
495.67	1787.88
495.88	1587.18
496.08	1646.57
496.29	1759.21
496.49	1636.33
496.69	1619.94
496.90	1640.42
497.10	1581.03
497.30	1613.80
497.51	1570.79
497.71	1587.18
497.92	1648.61
498.12	1685.48
498.32	1652.71
498.53	1730.53
498.73	1624.04
498.93	1699.81
499.14	1605.61
499.34	1605.61
499.55	1642.47
499.75	1632.23
499.95	1644.52
500.16	1687.53
500.36	1648.61
500.56	1685.48
500.77	1591.27
500.97	1611.75
501.17	1689.57
501.38	1656.81
501.58	1669.09
501.79	1685.48
501.99	1593.32
502.19	1665.00
502.40	1603.56
502.60	1744.87
502.80	1665.00
503.01	1638.38
503.21	1669.09
503.41	1669.09
503.62	1751.01
503.82	1601.51
504.02	1611.75
504.23	1607.66
504.43	1669.09
504.63	1695.72
504.84	1607.66
505.04	1695.72
505.24	1648.61
505.45	1669.09
505.65	1599.46
505.85	1652.71
506.06	1744.87
506.26	1669.09
506.46	1581.03
506.67	1710.05
506.87	1632.23
507.07	1650.66
507.28	1605.61
507.48	1615.85
507.68	1626.09
507.89	1755.11
508.09	1677.29
508.29	1693.67
508.50	1554.41
508.70	1755.11
508.90	1673.19
509.11	1687.53
509.31	1732.58
509.51	1621.99
509.72	1710.05
509.92	1628.14
510.12	1646.57
510.32	1630.18
510.53	1644.52
510.73	1654.76
510.93	1689.57
511.14	1615.85
511.34	1644.52
511.54	1636.33
511.75	1652.71
511.95	1710.05
512.15	1544.17
512.36	1689.57
512.56	1654.76
512.76	1681.38
512.96	1634.28
513.17	1738.73
513.37	1650.66
513.57	1658.85
513.78	1710.05
513.98	1650.66
514.18	1605.61
514.38	1619.94
514.59	1646.57
514.79	1589.22
514.99	1710.05
515.20	1656.81
515.40	1658.85
515.60	1662.95
515.80	1630.18
516.01	1740.77
516.21	1722.34
516.41	1619.94
516.62	1648.61
516.82	1695.72
517.02	1662.95
517.22	1746.92
517.43	1722.34
517.63	1742.82
517.83	1605.61
518.04	1677.29
518.24	1646.57
518.44	1701.86
518.64	1603.56
518.85	1699.81
519.05	1716.20
519.25	1667.05
519.45	1781.73
519.66	1726.44
519.86	1628.14
520.06	1654.76
520.26	1677.29
520.47	1710.05
520.67	1617.90
520.87	1689.57
521.08	1656.81
521.28	1550.31
521.48	1701.86
521.68	1675.24
521.89	1667.05
522.09	1679.33
522.29	1685.48
522.49	1665.00
522.70	1716.20
522.90	1787.88
523.10	1695.72
523.30	1630.18
523.51	1701.86
523.71	1599.46
523.91	1626.09
524.11	1665.00
524.31	1763.30
524.52	1681.38
524.72	1689.57
524.92	1712.10
525.12	1728.49
525.33	1595.37
525.53	1679.33
525.73	1613.80
525.93	1595.37
526.14	1603.56
526.34	1617.90
526.54	1759.21
526.74	1665.00
526.95	1755.11
527.15	1611.75
527.35	1665.00
527.55	1736.68
527.75	1624.04
527.96	1669.09
528.16	1734.63
528.36	1630.18
528.56	1746.92
528.77	1646.57
528.97	1716.20
529.17	1699.81
529.37	1636.33
529.57	1679.33
529.78	1769.44
529.98	1683.43
530.18	1685.48
530.38	1648.61
530.58	1654.76
530.79	1685.48
530.99	1611.75
531.19	1722.34
531.39	1701.86
531.59	1712.10
531.80	1716.20
532.00	1757.16
532.20	1767.40
532.40	1615.85
532.60	1699.81
532.81	1679.33
533.01	1669.09
533.21	1621.99
533.41	1726.44
533.61	1724.39
533.82	1820.64
534.02	1671.14
534.22	1617.90
534.42	1736.68
534.62	1755.11
534.83	1626.09
535.03	1755.11
535.23	1679.33
535.43	1722.34
535.63	1712.10
535.83	1761.25
536.04	1726.44
536.24	1697.77
536.44	1660.90
536.64	1669.09
536.84	1777.64
537.05	1693.67
537.25	1775.59
537.45	1685.48
537.65	1619.94
537.85	1701.86
538.05	1769.44
538.26	1720.29
538.46	1732.58
538.66	1777.64
538.86	1708.01
539.06	1730.53
539.26	1771.49
539.47	1705.96
539.67	1671.14
539.87	1742.82
540.07	1710.05
540.27	1820.64
540.47	1730.53
540.68	1722.34
540.88	1783.78
541.08	1720.29
541.28	1755.11
541.48	1716.20
541.68	1654.76
541.88	1857.51
542.09	1730.53
542.29	1759.21
542.49	1718.25
542.69	1832.93
542.89	1826.79
543.09	1787.88
543.29	1726.44
543.50	1830.88
543.70	1708.01
543.90	1751.01
544.10	1748.97
544.30	1763.30
544.50	1728.49
544.70	1800.16
544.91	1759.21
545.11	1644.52
545.31	1804.26
545.51	1720.29
545.71	1814.50
545.91	1900.52
546.11	1763.30
546.31	1779.68
546.52	1753.06
546.72	1726.44
546.92	1697.77
547.12	1841.12
547.32	1722.34
547.52	1744.87
547.72	1724.39
547.92	1767.40
548.13	1722.34
548.33	1808.36
548.53	1783.78
548.73	1791.97
548.93	1783.78
549.13	1736.68
549.33	1734.63
549.53	1718.25
549.73	1779.68
549.94	1662.95
550.14	1773.54
550.34	1683.43
550.54	1841.12
550.74	1759.21
550.94	1734.63
551.14	1816.55
551.34	1732.58
551.54	1734.63
551.74	1720.29
551.95	1726.44
552.15	1777.64
552.35	1783.78
552.55	1742.82
552.75	1845.22
552.95	1724.39
553.15	1728.49
553.35	1742.82
553.55	1787.88
553.75	1718.25
553.95	1636.33
554.16	1673.19
554.36	1701.86
554.56	1775.59
554.76	1679.33
554.96	1718.25
555.16	1781.73
555.36	1787.88
555.56	1818.60
555.76	1712.10
555.96	1763.30
556.16	1753.06
556.36	1720.29
556.57	1781.73
556.77	1791.97
556.97	1830.88
557.17	1755.11
557.37	1810.40
557.57	1773.54
557.77	1757.16
557.97	1656.81
558.17	1751.01
558.37	1779.68
558.57	1828.84
558.77	1757.16
558.97	1751.01
559.17	1724.39
559.37	1773.54
559.57	1777.64
559.78	1804.26
559.98	1775.59
560.18	1785.83
560.38	1814.50
560.58	1816.55
560.78	1740.77
560.98	1726.44
561.18	1800.16
561.38	1736.68
561.58	1794.02
561.78	1755.11
561.98	1824.74
562.18	1738.73
562.38	1837.03
562.58	1791.97
562.78	1796.07
562.98	1789.92
563.18	1845.22
563.38	1736.68
563.58	1791.97
563.78	1806.31
563.98	1660.90
564.18	1845.22
564.38	1798.12
564.58	1828.84
564.79	1755.11
564.99	1718.25
565.19	1877.99
565.39	1773.54
565.59	1771.49
565.79	1765.35
565.99	1826.79
566.19	1701.86
566.39	1726.44
566.59	1775.59
566.79	1808.36
566.99	1765.35
567.19	1785.83
567.39	1722.34
567.59	1810.40
567.79	1900.52
567.99	1714.15
568.19	1761.25
568.39	1734.63
568.59	1816.55
568.79	1791.97
568.99	1830.88
569.19	1816.55
569.39	1808.36
569.59	1800.16
569.79	1789.92
569.99	1837.03
570.19	1832.93
570.39	1826.79
570.59	1789.92
570.79	1791.97
570.99	1832.93
571.19	1810.40
571.39	1798.12
571.59	1787.88
571.79	1824.74
571.99	1875.94
572.19	1845.22
572.39	1894.37
572.59	1767.40
572.79	1753.06
572.99	1712.10
573.19	1746.92
573.39	1812.45
573.59	1775.59
573.79	1759.21
573.99	1779.68
574.19	1791.97
574.38	1794.02
574.58	1812.45
574.78	1886.18
574.98	1810.40
575.18	1820.64
575.38	1818.60
575.58	1787.88
575.78	1880.04
575.98	1859.56
576.18	1781.73
576.38	1802.21
576.58	1730.53
576.78	1718.25
576.98	1816.55
577.18	1791.97
577.38	1765.35
577.58	1779.68
577.78	1740.77
577.98	1765.35
578.18	1777.64
578.38	1832.93
578.58	1794.02
578.78	1886.18
578.98	1763.30
579.18	1783.78
579.37	1822.69
579.57	1751.01
579.77	1929.19
579.97	1802.21
580.17	1832.93
580.37	1839.08
580.57	1769.44
580.77	1867.75
580.97	2197.47
581.17	1873.89
581.37	1777.64
581.57	1783.78
581.77	1742.82
581.97	1830.88
582.17	1898.47
582.37	1867.75
582.56	1892.32
582.76	1765.35
582.96	1751.01
583.16	1759.21
583.36	1783.78
583.56	1767.40
583.76	1839.08
583.96	1871.84
584.16	1853.41
584.36	1882.08
584.56	1759.21
584.76	1898.47
584.95	1894.37
585.15	1777.64
585.35	1851.36
585.55	1841.12
585.75	1857.51
585.95	1830.88
586.15	1865.70
586.35	1875.94
586.55	1837.03
586.75	1873.89
586.95	1875.94
587.14	1849.32
587.34	1746.92
587.54	1818.60
587.74	1787.88
587.94	1800.16
588.14	1869.80
588.34	1812.45
588.54	1871.84
588.74	1839.08
588.94	1857.51
589.13	1826.79
589.33	1779.68
589.53	1882.08
589.73	1841.12
589.93	1906.66
590.13	1769.44
590.33	1789.92
590.53	1759.21
590.72	1869.80
590.92	1826.79
591.12	1779.68
591.32	1785.83
591.52	1773.54
591.72	1818.60
591.92	1859.56
592.12	1808.36
592.32	1839.08
592.51	1779.68
592.71	1869.80
592.91	1753.06
593.11	1816.55
593.31	1787.88
593.51	1824.74
593.71	1873.89
593.90	1882.08
594.10	1783.78
594.30	1839.08
594.50	1964.00
594.70	1828.84
594.90	1757.16
595.10	1789.92
595.29	1841.12
595.49	1798.12
595.69	1861.60
595.89	1908.71
596.09	1896.42
596.29	1859.56
596.49	1816.55
596.68	1841.12
596.88	1837.03
597.08	1875.94
597.28	1751.01
597.48	1880.04
597.68	1771.49
597.87	1908.71
598.07	1851.36
598.27	1910.75
598.47	1808.36
598.67	1892.32
598.87	1861.60
599.06	1871.84
599.26	1775.59
599.46	1865.70
599.66	1818.60
599.86	1824.74
600.06	1861.60
600.25	1744.87
600.45	1830.88
600.65	1906.66
600.85	1877.99
601.05	2007.01
601.25	1832.93
601.44	1898.47
601.64	1834.98
601.84	1904.61
602.04	1849.32
602.24	1873.89
602.43	1800.16
602.63	1800.16
602.83	1841.12
603.03	1800.16
603.23	1806.31
603.42	1968.10
603.62	1841.12
603.82	1869.80
604.02	1910.75
604.22	1918.95
604.42	1845.22
604.61	1892.32
604.81	1837.03
605.01	1802.21
605.21	2185.18
605.40	1810.40
605.60	1890.28
605.80	1884.13
606.00	1834.98
606.20	1890.28
606.39	1910.75
606.59	1875.94
606.79	1808.36
606.99	1871.84
607.19	1898.47
607.38	1867.75
607.58	1832.93
607.78	1882.08
607.98	1914.85
608.18	1908.71
608.37	1931.23
608.57	1822.69
608.77	1947.62
608.97	1804.26
609.16	1818.60
609.36	1843.17
609.56	1929.19
609.76	1843.17
609.95	1857.51
610.15	2037.73
610.35	1920.99
610.55	1976.29
610.75	1900.52
610.94	1943.52
611.14	1939.43
611.34	1988.58
611.54	2027.49
611.73	1974.24
611.93	1877.99
612.13	1974.24
612.33	1865.70
612.52	1927.14
612.72	1945.57
612.92	1877.99
613.12	1894.37
613.31	1855.46
613.51	1972.19
613.71	1923.04
613.91	1912.80
614.10	1861.60
614.30	1929.19
614.50	1978.34
614.70	1853.41
614.89	1902.56
615.09	1964.00
615.29	1925.09
615.49	1974.24
615.68	1863.65
615.88	1990.63
616.08	1914.85
616.27	1884.13
616.47	1857.51
616.67	1812.45
616.87	1843.17
617.06	1898.47
617.26	1904.61
617.46	1783.78
617.66	1849.32
617.85	1984.48
618.05	1875.94
618.25	1886.18
618.44	1896.42
618.64	1914.85
618.84	1877.99
619.04	1869.80
619.23	1841.12
619.43	1875.94
619.63	1968.10
619.82	1794.02
620.02	1890.28
620.22	1886.18
620.42	1882.08
620.61	1849.32
620.81	1953.76
621.01	1837.03
621.20	1877.99
621.40	1912.80
621.60	1957.86
621.79	1894.37
621.99	1837.03
622.19	1961.95
622.39	1998.82
622.58	1951.71
622.78	1890.28
622.98	1904.61
623.17	1920.99
623.37	2287.58
623.57	1939.43
623.76	1794.02
623.96	1953.76
624.16	1955.81
624.35	1916.90
624.55	1832.93
624.75	1986.53
624.94	1941.47
625.14	1837.03
625.34	1894.37
625.53	1824.74
625.73	1845.22
625.93	1953.76
626.12	1904.61
626.32	1923.04
626.52	1972.19
626.71	1929.19
626.91	1882.08
627.11	1871.84
627.30	1945.57
627.50	1802.21
627.70	1976.29
627.89	1882.08
628.09	1824.74
628.29	1861.60
628.48	1939.43
628.68	1849.32
628.88	1875.94
629.07	1910.75
629.27	1859.56
629.47	1914.85
629.66	1920.99
629.86	1957.86
630.06	1906.66
630.25	1947.62
630.45	1982.43
630.65	1927.14
630.84	1949.67
631.04	1959.91
631.24	1908.71
631.43	1955.81
631.63	1906.66
631.82	1900.52
632.02	1984.48
632.22	1947.62
632.41	1837.03
632.61	1978.34
632.81	1947.62
633.00	1912.80
633.20	1923.04
633.39	1968.10
633.59	1773.54
633.79	1775.59
633.98	1873.89
634.18	1851.36
634.38	1859.56
634.57	1910.75
634.77	1910.75
634.96	1875.94
635.16	1853.41
635.36	1964.00
635.55	1880.04
635.75	2023.39
635.95	1884.13
636.14	1923.04
636.34	1964.00
636.53	1914.85
636.73	1890.28
636.93	1947.62
637.12	1904.61
637.32	1873.89
637.51	1900.52
637.71	1980.39
637.91	1886.18
638.10	1843.17
638.30	1927.14
638.49	1945.57
638.69	2066.40
638.89	1890.28
639.08	1939.43
639.28	1951.71
639.47	1939.43
639.67	1957.86
639.86	1976.29
640.06	1968.10
640.26	2029.54
640.45	1910.75
640.65	1906.66
640.84	1929.19
641.04	1931.23
641.24	1978.34
641.43	1884.13
641.63	1843.17
641.82	1923.04
642.02	1925.09
642.21	1984.48
642.41	1937.38
642.61	1873.89
642.80	1882.08
643.00	1898.47
643.19	2013.15
643.39	1941.47
643.58	1945.57
643.78	1896.42
643.97	1873.89
644.17	2013.15
644.37	1892.32
644.56	1912.80
644.76	1955.81
644.95	1914.85
645.15	1990.63
645.34	1886.18
645.54	1949.67
645.73	1964.00
645.93	1984.48
646.13	1951.71
646.32	1888.23
646.52	1920.99
646.71	1943.52
646.91	1996.77
647.10	1910.75
647.30	1951.71
647.49	1892.32
647.69	1914.85
647.88	1945.57
648.08	1914.85
648.28	1918.95
648.47	1873.89
648.67	1947.62
648.86	1953.76
649.06	1988.58
649.25	1896.42
649.45	1925.09
649.64	1949.67
649.84	1990.63
650.03	1908.71
650.23	1984.48
650.42	1900.52
650.62	1968.10
650.81	1894.37
651.01	1896.42
651.20	1957.86
651.40	1974.24
651.59	1996.77
651.79	1910.75
651.98	1914.85
652.18	1894.37
652.37	1894.37
652.57	1978.34
652.76	2066.40
652.96	1896.42
653.15	1986.53
653.35	1890.28
653.54	1943.52
653.74	2023.39
653.93	1910.75
654.13	2011.11
654.32	1880.04
654.52	1845.22
654.71	2017.25
654.91	1980.39
655.10	2007.01
655.30	1908.71
655.49	1955.81
655.69	2013.15
655.88	1933.28
656.08	1988.58
656.27	2004.96
656.47	1953.76
656.66	1910.75
656.86	2009.06
657.05	1841.12
657.25	1955.81
657.44	1970.15
657.64	2031.58
657.83	1947.62
658.03	1937.38
658.22	2066.40
658.42	1955.81
658.61	1904.61
658.80	1925.09
659.00	1849.32
659.19	1918.95
659.39	1908.71
659.58	1923.04
659.78	1968.10
659.97	1992.67
660.17	2031.58
660.36	1955.81
660.56	1906.66
660.75	1906.66
660.95	1949.67
661.14	1957.86
661.33	1873.89
661.53	1886.18
661.72	1873.89
661.92	2031.58
662.11	1933.28
662.31	1939.43
662.50	1980.39
662.70	1865.70
662.89	1927.14
663.08	1898.47
663.28	2029.54
663.47	1949.67
663.67	1923.04
663.86	1992.67
664.06	1884.13
664.25	2000.87
664.44	2013.15
664.64	1964.00
664.83	2000.87
665.03	1941.47
665.22	1951.71
665.42	1964.00
665.61	1943.52
665.80	1937.38
666.00	1931.23
666.19	1914.85
666.39	1990.63
666.58	1964.00
666.77	1947.62
666.97	1908.71
667.16	1931.23
667.36	1925.09
667.55	1968.10
667.75	1974.24
667.94	1933.28
668.13	1966.05
668.33	2027.49
668.52	1955.81
668.72	1976.29
668.91	1992.67
669.10	2043.87
669.30	1994.72
669.49	1955.81
669.69	1964.00
669.88	2015.20
670.07	2013.15
670.27	1931.23
670.46	1888.23
670.66	2019.30
670.85	1980.39
671.04	2015.20
671.24	1968.10
671.43	1998.82
671.62	1955.81
671.82	1988.58
672.01	1910.75
672.21	1927.14
672.40	1986.53
672.59	1976.29
672.79	1972.19
672.98	2000.87
673.17	1978.34
673.37	1904.61
673.56	2027.49
673.76	1976.29
673.95	1990.63
674.14	2064.35
674.34	1980.39
674.53	1988.58
674.72	1978.34
674.92	1941.47
675.11	2031.58
675.30	1961.95
675.50	1959.91
675.69	1818.60
675.89	1927.14
676.08	1957.86
676.27	2000.87
676.47	1927.14
676.66	1955.81
676.85	1986.53
677.05	1947.62
677.24	1970.15
677.43	1961.95
677.63	1953.76
677.82	1964.00
678.01	2000.87
678.21	1951.71
678.40	1986.53
678.59	1982.43
678.79	1982.43
678.98	1988.58
679.17	1877.99
679.37	1910.75
679.56	1890.28
679.75	1920.99
679.95	1943.52
680.14	2039.78
680.33	1877.99
680.53	1949.67
680.72	1923.04
680.91	2004.96
681.11	2072.54
681.30	2025.44
681.49	1908.71
681.69	2035.68
681.88	1953.76
682.07	1957.86
682.26	1916.90
682.46	2031.58
682.65	1964.00
682.84	1976.29
683.04	1935.33
683.23	1994.72
683.42	1908.71
683.62	1931.23
683.81	1972.19
684.00	2037.73
684.20	1980.39
684.39	1900.52
684.58	1966.05
684.77	2009.06
684.97	1910.75
685.16	1923.04
685.35	2078.69
685.55	1982.43
685.74	2021.35
685.93	1984.48
686.12	2072.54
686.32	1916.90
686.51	2029.54
686.70	2025.44
686.90	1978.34
687.09	1984.48
687.28	1996.77
687.47	2011.11
687.67	1998.82
687.86	1986.53
688.05	2011.11
688.25	1949.67
688.44	2103.26
688.63	2043.87
688.82	1920.99
689.02	2019.30
689.21	2039.78
689.40	1935.33
689.59	1914.85
689.79	1966.05
689.98	1925.09
690.17	2017.25
690.36	1984.48
690.56	1945.57
690.75	2052.06
690.94	2070.50
691.13	1984.48
691.33	2056.16
691.52	1951.71
691.71	1894.37
691.90	1925.09
692.10	1914.85
692.29	1947.62
692.48	1955.81
692.67	1845.22
692.87	1906.66
693.06	1970.15
693.25	1992.67
693.44	2015.20
693.64	1974.24
693.83	1998.82
694.02	1894.37
694.21	1925.09
694.40	2047.97
694.60	1906.66
694.79	1904.61
694.98	1957.86
695.17	2029.54
695.37	1927.14
695.56	1767.40
695.75	1918.95
695.94	1961.95
696.13	1918.95
696.33	1925.09
696.52	2029.54
696.71	2025.44
696.90	1916.90
697.10	2027.49
697.29	1918.95
697.48	1935.33
697.67	1937.38
697.86	2007.01
698.06	1953.76
698.25	1996.77
698.44	1896.42
698.63	2019.30
698.82	1957.86
699.02	1931.23
699.21	1910.75
699.40	1941.47
699.59	1902.56
699.78	1957.86
699.98	2021.35
700.17	1886.18
700.36	1941.47
700.55	1972.19
700.74	1941.47
700.93	1955.81
701.13	1939.43
701.32	1976.29
701.51	1968.10
701.70	1988.58
701.89	1923.04
702.09	1968.10
702.28	1925.09
702.47	1918.95
702.66	1943.52
702.85	1988.58
703.04	1890.28
703.24	1898.47
703.43	1918.95
703.62	1935.33
703.81	1953.76
704.00	2056.16
704.19	1964.00
704.39	1988.58
704.58	1884.13
704.77	2019.30
704.96	1988.58
705.15	1980.39
705.34	1986.53
705.54	2013.15
705.73	1931.23
705.92	1914.85
706.11	1945.57
706.30	1994.72
706.49	1931.23
706.68	1886.18
706.88	2015.20
707.07	1931.23
707.26	2035.68
707.45	1970.15
707.64	2029.54
707.83	1937.38
708.02	1923.04
708.22	2043.87
708.41	1882.08
708.60	1902.56
708.79	1957.86
708.98	1925.09
709.17	2105.31
709.36	1957.86
709.55	1927.14
709.75	1982.43
709.94	1865.70
710.13	1964.00
710.32	1970.15
710.51	1984.48
710.70	1970.15
710.89	1861.60
711.08	1941.47
711.27	1966.05
711.47	1937.38
711.66	1998.82
711.85	1935.33
712.04	2004.96
712.23	1894.37
712.42	1978.34
712.61	1970.15
712.80	1918.95
712.99	1925.09
713.19	1902.56
713.38	1916.90
713.57	1974.24
713.76	2013.15
713.95	1964.00
714.14	1966.05
714.33	2037.73
714.52	2050.02
714.71	1918.95
714.90	2050.02
715.09	1916.90
715.28	1947.62
715.48	1986.53
715.67	2041.82
715.86	1925.09
716.05	2021.35
716.24	2007.01
716.43	1961.95
716.62	1931.23
716.81	1939.43
717.00	2029.54
717.19	1964.00
717.38	1935.33
717.57	1937.38
717.76	2004.96
717.96	1968.10
718.15	2056.16
718.34	1931.23
718.53	1976.29
718.72	1986.53
718.91	1916.90
719.10	1832.93
719.29	1914.85
719.48	1845.22
719.67	1990.63
719.86	2068.45
720.05	1902.56
720.24	1953.76
720.43	1937.38
720.62	1953.76
720.81	1964.00
721.00	1931.23
721.19	2004.96
721.38	1961.95
721.57	1953.76
721.77	2013.15
721.96	1982.43
722.15	1961.95
722.34	1949.67
722.53	1890.28
722.72	1951.71
722.91	1974.24
723.10	1861.60
723.29	1982.43
723.48	1972.19
723.67	2035.68
723.86	1964.00
724.05	1925.09
724.24	2023.39
724.43	1906.66
724.62	1931.23
724.81	1980.39
725.00	1920.99
725.19	2097.12
725.38	2009.06
725.57	2013.15
725.76	1976.29
725.95	1826.79
726.14	1900.52
726.33	1988.58
726.52	1912.80
726.71	1886.18
726.90	1988.58
727.09	1972.19
727.28	1861.60
727.47	1951.71
727.66	1976.29
727.85	1892.32
728.04	1853.41
728.23	1949.67
728.42	1931.23
728.61	1966.05
728.80	2066.40
728.99	1847.27
729.18	2019.30
729.37	1923.04
729.56	1935.33
729.75	1851.36
729.94	1953.76
730.13	1966.05
730.32	1947.62
730.51	2000.87
730.70	2021.35
730.89	1914.85
731.08	2047.97
731.27	1955.81
731.46	1994.72
731.65	1984.48
731.84	2007.01
732.03	1877.99
732.21	1908.71
732.40	2050.02
732.59	1980.39
732.78	1951.71
732.97	1986.53
733.16	1877.99
733.35	1953.76
733.54	1875.94
733.73	1972.19
733.92	1927.14
734.11	1943.52
734.30	1880.04
734.49	1988.58
734.68	1865.70
734.87	1947.62
735.06	1898.47
735.25	1912.80
735.44	2004.96
735.63	1916.90
735.81	2142.18
736.00	1992.67
736.19	2007.01
736.38	1992.67
736.57	2050.02
736.76	1935.33
736.95	1937.38
737.14	1925.09
737.33	2000.87
737.52	1898.47
737.71	1957.86
737.90	1906.66
738.09	1986.53
738.28	1920.99
738.46	1923.04
738.65	1941.47
738.84	1906.66
739.03	1914.85
739.22	1902.56
739.41	2088.93
739.60	1974.24
739.79	1918.95
739.98	1884.13
740.17	1951.71
740.36	1941.47
740.54	1964.00
740.73	1906.66
740.92	2033.63
741.11	1923.04
741.30	1994.72
741.49	1906.66
741.68	1959.91
741.87	1957.86
742.06	1998.82
742.24	1974.24
742.43	1976.29
742.62	1898.47
742.81	2011.11
743.00	1998.82
743.19	1898.47
743.38	1894.37
743.57	2027.49
743.76	1947.62
743.94	2033.63
744.13	1927.14
744.32	1955.81
744.51	1845.22
744.70	1941.47
744.89	1935.33
745.08	1976.29
745.26	1955.81
745.45	1968.10
745.64	1970.15
745.83	1941.47
746.02	1931.23
746.21	1892.32
746.40	1937.38
746.58	1931.23
746.77	1986.53
746.96	1959.91
747.15	1912.80
747.34	2009.06
747.53	2029.54
747.72	2013.15
747.90	1923.04
748.09	1949.67
748.28	1941.47
748.47	1943.52
748.66	1910.75
748.85	1984.48
749.03	1912.80
749.22	1953.76
749.41	1949.67
749.60	1992.67
749.79	1947.62
749.98	1882.08
750.16	1982.43
750.35	1939.43
750.54	1974.24
750.73	1869.80
750.92	1953.76
751.11	1949.67
751.29	1923.04
751.48	1976.29
751.67	1976.29
751.86	1906.66
752.05	1906.66
752.24	1890.28
752.42	1916.90
752.61	1841.12
752.80	1902.56
752.99	1986.53
753.18	1925.09
753.36	1998.82
753.55	1980.39
753.74	1904.61
753.93	1982.43
754.12	1968.10
754.30	1910.75
754.49	1968.10
754.68	1910.75
754.87	2004.96
755.06	1961.95
755.24	1882.08
755.43	1863.65
755.62	1970.15
755.81	1937.38
755.99	1920.99
756.18	1966.05
756.37	1875.94
756.56	1859.56
756.75	1888.23
756.93	1910.75
757.12	1957.86
757.31	1951.71
757.50	1988.58
757.68	1914.85
757.87	2066.40
758.06	1925.09
758.25	1992.67
758.44	1953.76
758.62	1898.47
758.81	1886.18
759.00	1857.51
759.19	1959.91
759.37	1945.57
759.56	1902.56
759.75	1996.77
759.94	1964.00
760.12	1986.53
760.31	1898.47
760.50	1970.15
760.69	1923.04
760.87	1982.43
761.06	1935.33
761.25	1986.53
761.44	1910.75
761.62	1849.32
761.81	1955.81
762.00	1808.36
762.19	1964.00
762.37	1894.37
762.56	1957.86
762.75	2004.96
762.94	1949.67
763.12	1974.24
763.31	1927.14
763.50	1845.22
763.68	1941.47
763.87	1918.95
764.06	1853.41
764.25	1898.47
764.43	1957.86
764.62	1783.78
764.81	1875.94
764.99	1796.07
765.18	1898.47
765.37	1929.19
765.56	1990.63
765.74	1880.04
765.93	1882.08
766.12	1892.32
766.30	1890.28
766.49	1976.29
766.68	1939.43
766.87	1941.47
767.05	1910.75
767.24	1947.62
767.43	2015.20
767.61	1877.99
767.80	1839.08
767.99	1875.94
768.17	1974.24
768.36	1923.04
768.55	1851.36
768.73	1996.77
768.92	1955.81
769.11	1918.95
769.30	1920.99
769.48	1943.52
769.67	1906.66
769.86	1947.62
770.04	1779.68
770.23	1914.85
770.42	1812.45
770.60	1916.90
770.79	1769.44
770.98	1927.14
771.16	1853.41
771.35	1910.75
771.54	1851.36
771.72	1902.56
771.91	1839.08
772.10	1877.99
772.28	1873.89
772.47	1849.32
772.66	1875.94
772.84	1871.84
773.03	1935.33
773.22	1945.57
773.40	1894.37
773.59	1830.88
773.77	1861.60
773.96	1947.62
774.15	1873.89
774.33	1880.04
774.52	1869.80
774.71	1818.60
774.89	1955.81
775.08	1869.80
775.27	1892.32
775.45	1914.85
775.64	1857.51
775.83	1804.26
776.01	1888.23
776.20	1980.39
776.38	1857.51
776.57	1869.80
776.76	1945.57
776.94	1918.95
777.13	1966.05
777.32	1916.90
777.50	1857.51
777.69	1884.13
777.87	1886.18
778.06	1867.75
778.25	1871.84
778.43	1794.02
778.62	1923.04
778.80	1902.56
778.99	1955.81
779.18	1918.95
779.36	1847.27
779.55	1884.13
779.73	1900.52
779.92	1861.60
780.11	1845.22
780.29	1886.18
780.48	1882.08
780.66	1964.00
780.85	1824.74
781.04	1892.32
781.22	1906.66
781.41	1863.65
781.59	1826.79
781.78	1837.03
781.97	1906.66
782.15	1886.18
782.34	1894.37
782.52	1853.41
782.71	1918.95
782.89	1908.71
783.08	1847.27
783.27	1832.93
783.45	1869.80
783.64	1869.80
783.82	1974.24
784.01	1900.52
784.19	1787.88
784.38	1867.75
784.57	1875.94
784.75	1789.92
784.94	1853.41
785.12	1871.84
785.31	1855.46
785.49	1906.66
785.68	1808.36
785.86	1832.93
786.05	1882.08
786.24	1953.76
786.42	1810.40
786.61	1886.18
786.79	1832.93
786.98	1882.08
787.16	1875.94
787.35	1918.95
787.53	1877.99
787.72	1826.79
787.90	1910.75
788.09	1875.94
788.28	1839.08
788.46	1816.55
788.65	1855.46
788.83	1951.71
789.02	1820.64
789.20	1865.70
789.39	1935.33
789.57	1834.98
789.76	1869.80
789.94	1966.05
790.13	1951.71
790.31	1861.60
790.50	1894.37
790.68	1959.91
790.87	1853.41
791.05	1861.60
791.24	1849.32
791.42	1820.64
791.61	1845.22
791.79	1849.32
791.98	1832.93
792.16	1910.75
792.35	1904.61
792.53	1890.28
792.72	1873.89
792.90	1943.52
793.09	1892.32
793.27	1802.21
793.46	1845.22
793.64	1890.28
793.83	1884.13
794.01	1949.67
794.20	1837.03
794.38	1839.08
794.57	1886.18
794.75	1902.56
794.94	1775.59
795.12	1861.60
795.31	1890.28
795.49	1873.89
795.68	1873.89
795.86	1908.71
796.05	1884.13
796.23	1886.18
796.42	1906.66
796.60	1914.85
796.78	1837.03
796.97	1890.28
797.15	1808.36
797.34	1964.00
797.52	1826.79
797.71	1851.36
797.89	1826.79
798.08	1908.71
798.26	1767.40
798.45	1804.26
798.63	1882.08
798.81	1820.64
799.00	1898.47
799.18	1892.32
799.37	1867.75
799.55	1861.60
799.74	1841.12
799.92	1820.64
800.11	1892.32
800.29	1843.17
800.47	1865.70
800.66	1834.98
800.84	1923.04
801.03	1851.36
801.21	1880.04
801.40	1941.47
801.58	1906.66
801.76	1890.28
801.95	1902.56
802.13	1812.45
802.32	1880.04
802.50	1841.12
802.69	1800.16
802.87	1925.09
803.05	1824.74
803.24	1748.97
803.42	1886.18
803.61	1841.12
803.79	1863.65
803.97	1851.36
804.16	1810.40
804.34	1841.12
804.53	1816.55
804.71	1794.02
804.89	1906.66
805.08	1847.27
805.26	1849.32
805.45	1814.50
805.63	1841.12
805.81	1828.84
806.00	1832.93
806.18	1935.33
806.37	1923.04
806.55	1867.75
806.73	1834.98
806.92	1884.13
807.10	1785.83
807.28	1894.37
807.47	1791.97
807.65	1898.47
807.84	1873.89
808.02	1791.97
808.20	1818.60
808.39	1912.80
808.57	1845.22
808.75	1812.45
808.94	1781.73
809.12	1783.78
809.31	1861.60
809.49	1779.68
809.67	1888.23
809.86	1906.66
810.04	1875.94
810.22	1808.36
810.41	1804.26
810.59	1828.84
810.77	1882.08
810.96	1861.60
811.14	1933.28
811.32	1832.93
811.51	1843.17
811.69	1767.40
811.87	1845.22
812.06	1742.82
812.24	1824.74
812.42	1873.89
812.61	1943.52
812.79	1841.12
812.97	1843.17
813.16	1826.79
813.34	1853.41
813.52	1871.84
813.71	1802.21
813.89	1880.04
814.07	1798.12
814.26	1806.31
814.44	1847.27
814.62	1966.05
814.81	1828.84
814.99	1849.32
815.17	2250.72
815.36	1884.13
815.54	1839.08
815.72	1822.69
815.91	1818.60
816.09	1810.40
816.27	1798.12
816.45	1746.92
816.64	1789.92
816.82	1791.97
817.00	1974.24
817.19	1783.78
817.37	1814.50
817.55	1791.97
817.74	1775.59
817.92	1818.60
818.10	1841.12
818.28	1783.78
818.47	1830.88
818.65	1880.04
818.83	1837.03
819.02	1820.64
819.20	1771.49
819.38	1822.69
819.56	1800.16
819.75	1802.21
819.93	1906.66
820.11	1746.92
820.29	1855.46
820.48	1800.16
820.66	1712.10
820.84	1789.92
821.03	1808.36
821.21	1832.93
821.39	1906.66
821.57	1798.12
821.76	1804.26
821.94	1851.36
822.12	1808.36
822.30	1744.87
822.49	1728.49
822.67	1925.09
822.85	1818.60
823.03	1882.08
823.22	1662.95
823.40	1863.65
823.58	1751.01
823.76	1714.15
823.95	1851.36
824.13	1761.25
824.31	1773.54
824.49	1867.75
824.68	1871.84
824.86	1857.51
825.04	1861.60
825.22	1837.03
825.40	1718.25
825.59	1771.49
825.77	1935.33
825.95	1828.84
826.13	1851.36
826.32	1763.30
826.50	1865.70
826.68	1767.40
826.86	1763.30
827.04	1708.01
827.23	1843.17
827.41	1806.31
827.59	1796.07
827.77	1841.12
827.95	1830.88
828.14	1796.07
828.32	1759.21
828.50	1824.74
828.68	1787.88
828.86	1777.64
829.05	1761.25
829.23	1806.31
829.41	1886.18
829.59	1900.52
829.77	1787.88
829.96	1742.82
830.14	1800.16
830.32	1806.31
830.50	1746.92
830.68	1810.40
830.87	1832.93
831.05	1832.93
831.23	1728.49
831.41	1783.78
831.59	1722.34
831.77	1837.03
831.96	1726.44
832.14	1755.11
832.32	1775.59
832.50	1843.17
832.68	1771.49
832.86	1804.26
833.05	1757.16
833.23	1785.83
833.41	1804.26
833.59	1763.30
833.77	1794.02
833.95	1773.54
834.14	1773.54
834.32	1765.35
834.50	1843.17
834.68	1818.60
834.86	1742.82
835.04	1775.59
835.22	1851.36
835.41	1775.59
835.59	1740.77
835.77	1751.01
835.95	1742.82
836.13	1830.88
836.31	1761.25
836.49	1753.06
836.67	1800.16
836.86	1777.64
837.04	1751.01
837.22	1722.34
837.40	1789.92
837.58	1761.25
837.76	1843.17
837.94	1720.29
838.12	1736.68
838.31	1726.44
838.49	1724.39
838.67	1824.74
838.85	1853.41
839.03	1757.16
839.21	1769.44
839.39	1791.97
839.57	1794.02
839.75	1660.90
839.94	1703.91
840.12	1814.50
840.30	1748.97
840.48	1832.93
840.66	1765.35
840.84	1834.98
841.02	1773.54
841.20	1800.16
841.38	1695.72
841.56	1769.44
841.74	1761.25
841.93	1804.26
842.11	1806.31
842.29	1800.16
842.47	1791.97
842.65	1724.39
842.83	1728.49
843.01	1798.12
843.19	1744.87
843.37	1695.72
843.55	1800.16
843.73	1787.88
843.91	1808.36
844.09	1785.83
844.28	1726.44
844.46	1822.69
844.64	1769.44
844.82	1736.68
845.00	1773.54
845.18	1828.84
845.36	1744.87
845.54	1740.77
845.72	1744.87
845.90	1742.82
846.08	1746.92
846.26	1857.51
846.44	1734.63
846.62	1759.21
846.80	1746.92
846.98	1726.44
847.16	1757.16
847.34	1710.05
847.52	1736.68
847.70	1800.16
847.88	1726.44
848.07	1769.44
848.25	1695.72
848.43	1851.36
848.61	1734.63
848.79	1783.78
848.97	1763.30
849.15	1882.08
849.33	1740.77
849.51	1802.21
849.69	1814.50
849.87	1730.53
850.05	1744.87
850.23	1763.30
850.41	1775.59
850.59	1767.40
850.77	1804.26
850.95	1701.86
851.13	1794.02
851.31	1777.64
851.49	1830.88
851.67	1742.82
851.85	1695.72
852.03	1781.73
852.21	1751.01
852.39	1728.49
852.57	1761.25
852.75	1746.92
852.93	1794.02
853.11	1775.59
853.29	1673.19
853.47	1880.04
853.65	1662.95
853.83	1771.49
854.01	1775.59
854.19	1765.35
854.37	1732.58
854.55	1767.40
854.73	1796.07
854.91	1820.64
855.08	1685.48
855.26	1816.55
855.44	1701.86
855.62	1765.35
855.80	1761.25
855.98	1812.45
856.16	1783.78
856.34	1783.78
856.52	1738.73
856.70	1751.01
856.88	1748.97
857.06	1783.78
857.24	1734.63
857.42	1726.44
857.60	1730.53
857.78	1746.92
857.96	1763.30
858.14	1783.78
858.32	1791.97
858.50	1660.90
858.68	1816.55
858.85	1730.53
859.03	1775.59
859.21	1744.87
859.39	1742.82
859.57	1812.45
859.75	1734.63
859.93	1771.49
860.11	1693.67
860.29	1796.07
860.47	1705.96
860.65	1775.59
860.83	1763.30
861.01	1783.78
861.18	1767.40
861.36	1695.72
861.54	1744.87
861.72	1742.82
861.90	1773.54
862.08	1742.82
862.26	1708.01
862.44	1654.76
862.62	1630.18
862.80	1767.40
862.98	1708.01
863.15	1724.39
863.33	1787.88
863.51	1693.67
863.69	1753.06
863.87	1714.15
864.05	1777.64
864.23	1677.29
864.41	1771.49
864.59	1753.06
864.76	1693.67
864.94	1740.77
865.12	1738.73
865.30	1714.15
865.48	1802.21
865.66	1798.12
865.84	1695.72
866.02	1710.05
866.19	1689.57
866.37	1730.53
866.55	1656.81
866.73	1603.56
866.91	1677.29
867.09	1718.25
867.27	1658.85
867.44	1773.54
867.62	1669.09
867.80	1759.21
867.98	1740.77
868.16	1738.73
868.34	1697.77
868.52	1783.78
868.69	1759.21
868.87	1785.83
869.05	1718.25
869.23	1775.59
869.41	1771.49
869.59	1736.68
869.76	1755.11
869.94	1689.57
870.12	1808.36
870.30	1828.84
870.48	1763.30
870.66	1730.53
870.83	1783.78
871.01	1720.29
871.19	1806.31
871.37	1845.22
871.55	1660.90
871.73	1673.19
871.90	1697.77
872.08	1718.25
872.26	1648.61
872.44	1720.29
872.62	1751.01
872.79	1767.40
872.97	1759.21
873.15	1695.72
873.33	1751.01
873.51	1701.86
873.68	1787.88
873.86	1718.25
874.04	1785.83
874.22	1652.71
874.40	1687.53
874.57	1753.06
874.75	1755.11
874.93	1796.07
875.11	1740.77
875.29	1759.21
875.46	1683.43
875.64	1701.86
875.82	1642.47
876.00	1724.39
876.17	1794.02
876.35	1685.48
876.53	1804.26
876.71	1705.96
876.89	1701.86
877.06	1751.01
877.24	1669.09
877.42	1732.58
877.60	1738.73
877.77	1644.52
877.95	1822.69
878.13	1812.45
878.31	1714.15
878.48	1751.01
878.66	1808.36
878.84	1730.53
879.02	1656.81
879.19	1837.03
879.37	1710.05
879.55	1699.81
879.73	1630.18
879.90	1794.02
880.08	1685.48
880.26	1730.53
880.44	1708.01
880.61	1744.87
880.79	1728.49
880.97	1621.99
881.15	1716.20
881.32	1685.48
881.50	1705.96
881.68	1726.44
881.85	1796.07
882.03	1746.92
882.21	1687.53
882.39	1687.53
882.56	1673.19
882.74	1761.25
882.92	1667.05
883.09	1705.96
883.27	1816.55
883.45	1816.55
883.63	1761.25
883.80	1740.77
883.98	1693.67
884.16	1695.72
884.33	1615.85
884.51	1673.19
884.69	1740.77
884.87	1701.86
885.04	1779.68
885.22	1796.07
885.40	1685.48
885.57	1714.15
885.75	1695.72
885.93	1724.39
886.10	1738.73
886.28	1728.49
886.46	1656.81
886.63	1759.21
886.81	1740.77
886.99	1814.50
887.16	1665.00
887.34	1708.01
887.52	1701.86
887.69	1654.76
887.87	1722.34
888.05	1660.90
888.22	1712.10
888.40	1751.01
888.58	1626.09
888.75	1714.15
888.93	1683.43
889.11	1703.91
889.28	1783.78
889.46	1720.29
889.64	1712.10
889.81	1685.48
889.99	1644.52
890.17	1746.92
890.34	1681.38
890.52	1695.72
890.70	1710.05
890.87	1812.45
891.05	1697.77
891.22	1841.12
891.40	1708.01
891.58	1710.05
891.75	1660.90
891.93	1693.67
892.11	1634.28
892.28	1654.76
892.46	1710.05
892.63	1689.57
892.81	1619.94
892.99	1712.10
893.16	1751.01
893.34	1695.72
893.52	1716.20
893.69	1693.67
893.87	1701.86
894.04	1757.16
894.22	1693.67
894.40	1767.40
894.57	1667.05
894.75	1742.82
894.92	1726.44
895.10	1660.90
895.28	1712.10
895.45	1703.91
895.63	1738.73
895.80	1640.42
895.98	1693.67
896.16	1689.57
896.33	1816.55
896.51	1701.86
896.68	1689.57
896.86	1679.33
897.04	1679.33
897.21	1722.34
897.39	1699.81
897.56	1734.63
897.74	1695.72
897.91	1763.30
898.09	1791.97
898.27	1638.38
898.44	1738.73
898.62	1699.81
898.79	1656.81
898.97	1693.67
899.14	1736.68
899.32	1703.91
899.49	1771.49
899.67	1759.21
899.85	1685.48
900.02	1732.58
900.20	1685.48
900.37	1751.01
900.55	1716.20
900.72	1662.95
900.90	1716.20
901.07	1681.38
901.25	1617.90
901.43	1689.57
901.60	1757.16
901.78	1712.10
901.95	1681.38
902.13	1654.76
902.30	1703.91
902.48	1652.71
902.65	1652.71
902.83	1662.95
903.00	1757.16
903.18	1632.23
903.35	1808.36
903.53	1691.62
903.70	1624.04
903.88	1648.61
904.05	1677.29
904.23	1816.55
904.40	1669.09
904.58	1640.42
904.75	1736.68
904.93	1601.51
905.10	1718.25
905.28	1734.63
905.45	1689.57
905.63	1648.61
905.80	1705.96
905.98	1726.44
906.15	1681.38
906.33	1619.94
906.50	1687.53
906.68	1791.97
906.85	1744.87
907.03	1634.28
907.20	1615.85
907.38	1773.54
907.55	1665.00
907.73	1744.87
907.90	1660.90
908.08	1744.87
908.25	1759.21
908.43	1701.86
908.60	1642.47
908.78	1728.49
908.95	1681.38
909.13	1722.34
909.30	1630.18
909.47	1720.29
909.65	1720.29
909.82	1679.33
910.00	1679.33
910.17	1742.82
910.35	1673.19
910.52	1673.19
910.70	1605.61
910.87	1710.05
911.05	1683.43
911.22	1746.92
911.39	1763.30
911.57	1722.34
911.74	1662.95
911.92	1716.20
912.09	1751.01
912.27	1755.11
912.44	1730.53
912.61	1654.76
912.79	1685.48
912.96	1710.05
913.14	1597.42
913.31	1648.61
913.49	1677.29
913.66	1628.14
913.83	1708.01
914.01	1671.14
914.18	1632.23
914.36	1589.22
914.53	1722.34
914.70	1685.48
914.88	1628.14
915.05	1734.63
915.23	1607.66
915.40	1607.66
915.58	1652.71
915.75	1722.34
915.92	1730.53
916.10	1785.83
916.27	1669.09
916.44	1644.52
916.62	1646.57
916.79	1687.53
916.97	1644.52
917.14	1716.20
917.31	1746.92
917.49	1714.15
917.66	1705.96
917.84	1632.23
918.01	1619.94
918.18	1726.44
918.36	1630.18
918.53	1720.29
918.70	1708.01
918.88	1734.63
919.05	1662.95
919.23	1722.34
919.40	1652.71
919.57	1677.29
919.75	1716.20
919.92	1624.04
920.09	1730.53
920.27	1742.82
920.44	1636.33
920.61	1617.90
920.79	1734.63
920.96	1751.01
921.13	1671.14
921.31	1642.47
921.48	1740.77
921.65	1679.33
921.83	1656.81
922.00	1730.53
922.17	1697.77
922.35	1665.00
922.52	1716.20
922.69	1654.76
922.87	1769.44
923.04	1699.81
923.21	1697.77
923.39	1720.29
923.56	1695.72
923.73	1705.96
923.91	1638.38
924.08	1621.99
924.25	1693.67
924.43	1654.76
924.60	1621.99
924.77	1628.14
924.95	1636.33
925.12	1626.09
925.29	1652.71
925.47	1683.43
925.64	1697.77
925.81	1703.91
925.98	1624.04
926.16	1687.53
926.33	1712.10
926.50	1640.42
926.68	1613.80
926.85	1726.44
927.02	1669.09
927.19	1642.47
927.37	1720.29
927.54	1599.46
927.71	1681.38
927.89	1689.57
928.06	1605.61
928.23	1703.91
928.40	1757.16
928.58	1738.73
928.75	1640.42
928.92	1619.94
929.09	1556.46
929.27	1693.67
929.44	1646.57
929.61	1644.52
929.79	1710.05
929.96	1650.66
930.13	1609.70
930.30	1742.82
930.48	1636.33
930.65	1675.24
930.82	1646.57
930.99	1738.73
931.17	1587.18
931.34	1644.52
931.51	1658.85
931.68	1570.79
931.85	1662.95
932.03	1730.53
932.20	1601.51
932.37	1615.85
932.54	1640.42
932.72	1665.00
932.89	1693.67
933.06	1718.25
933.23	1730.53
933.41	1693.67
933.58	1642.47
933.75	1591.27
933.92	1603.56
934.09	1652.71
934.27	1624.04
934.44	1662.95
934.61	1632.23
934.78	1613.80
934.95	1636.33
935.13	1619.94
935.30	1669.09
935.47	1660.90
935.64	1636.33
935.81	1701.86
935.99	1669.09
936.16	1669.09
936.33	1710.05
936.50	1644.52
936.67	1640.42
936.85	1695.72
937.02	1656.81
937.19	1710.05
937.36	1658.85
937.53	1634.28
937.71	1617.90
937.88	1669.09
938.05	1716.20
938.22	1660.90
938.39	1624.04
938.56	1636.33
938.74	1681.38
938.91	1665.00
939.08	1632.23
939.25	1578.98
939.42	1568.74
939.59	1650.66
939.77	1628.14
939.94	1726.44
940.11	1662.95
940.28	1654.76
940.45	1624.04
940.62	1683.43
940.79	1710.05
940.97	1609.70
941.14	1632.23
941.31	1587.18
941.48	1685.48
941.65	1681.38
941.82	1658.85
941.99	1710.05
942.17	1630.18
942.34	1560.55
942.51	1665.00
942.68	1742.82
942.85	1701.86
943.02	1587.18
943.19	1640.42
943.36	1648.61
943.54	1628.14
943.71	1652.71
943.88	1611.75
944.05	1662.95
944.22	1734.63
944.39	1581.03
944.56	1683.43
944.73	1662.95
944.90	1648.61
945.08	1531.88
945.25	1617.90
945.42	1665.00
945.59	1607.66
945.76	1744.87
945.93	1681.38
946.10	1681.38
946.27	1578.98
946.44	1591.27
946.61	1628.14
946.78	1587.18
946.96	1638.38
947.13	1710.05
947.30	1632.23
947.47	1632.23
947.64	1621.99
947.81	1654.76
947.98	1658.85
948.15	1613.80
948.32	1636.33
948.49	1673.19
948.66	1619.94
948.83	1603.56
949.00	1611.75
949.17	1636.33
949.35	1560.55
949.52	1607.66
949.69	1572.84
949.86	1740.77
950.03	1527.78
950.20	1613.80
950.37	1634.28
950.54	1669.09
950.71	1607.66
950.88	1646.57
951.05	1548.26
951.22	1613.80
951.39	1640.42
951.56	1621.99
951.73	1658.85
951.90	1619.94
952.07	1636.33
952.24	1603.56
952.41	1593.32
952.58	1681.38
952.75	1667.05
952.92	1658.85
953.09	1665.00
953.26	1640.42
953.43	1642.47
953.60	1566.70
953.77	1681.38
953.94	1599.46
954.11	1619.94
954.28	1619.94
954.45	1615.85
954.62	1574.89
954.79	1628.14
954.96	1650.66
955.13	1775.59
955.30	1595.37
955.47	1591.27
955.64	1693.67
955.81	1568.74
955.98	1669.09
956.15	1574.89
956.32	1742.82
956.49	1599.46
956.66	1619.94
956.83	1630.18
957.00	1619.94
957.17	1638.38
957.34	1558.50
957.51	1619.94
957.68	1564.65
957.85	1630.18
958.02	1607.66
958.19	1671.14
958.36	1621.99
958.53	1621.99
958.70	1587.18
958.87	1587.18
959.04	1665.00
959.21	1617.90
959.38	1599.46
959.55	1734.63
959.72	1763.30
959.89	1619.94
960.06	1689.57
960.23	1644.52
960.39	1669.09
960.56	1619.94
960.73	1581.03
960.90	1531.88
961.07	1611.75
961.24	1621.99
961.41	1673.19
961.58	1550.31
961.75	1644.52
961.92	1636.33
962.09	1619.94
962.26	1542.12
962.43	1597.42
962.60	1660.90
962.76	1691.62
962.93	1611.75
963.10	1583.08
963.27	1630.18
963.44	1597.42
963.61	1624.04
963.78	1660.90
963.95	1626.09
964.12	1640.42
964.29	1576.94
964.46	1587.18
964.62	1587.18
964.79	1648.61
964.96	1619.94
965.13	1660.90
965.30	1581.03
965.47	1673.19
965.64	1673.19
965.81	1599.46
965.98	1644.52
966.14	1671.14
966.31	1601.51
966.48	1615.85
966.65	1599.46
966.82	1654.76
966.99	1564.65
967.16	1607.66
967.33	1693.67
967.49	1638.38
967.66	1587.18
967.83	1599.46
968.00	1691.62
968.17	1607.66
968.34	1646.57
968.51	1605.61
968.67	1597.42
968.84	1630.18
969.01	1578.98
969.18	1654.76
969.35	1613.80
969.52	1548.26
969.68	1619.94
969.85	1554.41
970.02	1716.20
970.19	1583.08
970.36	1597.42
970.53	1583.08
970.69	1632.23
970.86	1697.77
971.03	1552.36
971.20	1732.58
971.37	1599.46
971.54	1619.94
971.70	1624.04
971.87	1513.45
972.04	1644.52
972.21	1650.66
972.38	1703.91
972.55	1601.51
972.71	1603.56
972.88	1572.84
973.05	1570.79
973.22	1607.66
973.39	1724.39
973.55	1669.09
973.72	1587.18
973.89	1617.90
974.06	1595.37
974.23	1636.33
974.39	1673.19
974.56	1617.90
974.73	1603.56
974.90	1628.14
975.06	1589.22
975.23	1611.75
975.40	1531.88
975.57	1685.48
975.74	1619.94
975.90	1607.66
976.07	1589.22
976.24	1585.13
976.41	1607.66
976.57	1636.33
976.74	1593.32
976.91	1568.74
977.08	1564.65
977.24	1617.90
977.41	1570.79
977.58	1581.03
977.75	1613.80
977.92	1621.99
978.08	1630.18
978.25	1669.09
978.42	1546.22
978.58	1626.09
978.75	1558.50
978.92	1589.22
979.09	1638.38
979.25	1662.95
979.42	1630.18
979.59	1609.70
979.76	1611.75
979.92	1595.37
980.09	1683.43
980.26	1550.31
980.43	1613.80
980.59	1576.94
980.76	1617.90
980.93	1576.94
981.09	1630.18
981.26	1628.14
981.43	1650.66
981.60	1585.13
981.76	1527.78
981.93	1597.42
982.10	1583.08
982.26	1603.56
982.43	1601.51
982.60	1624.04
982.77	1564.65
982.93	1636.33
983.10	1601.51
983.27	1699.81
983.43	1624.04
983.60	1628.14
983.77	1617.90
983.93	1615.85
984.10	1677.29
984.27	1609.70
984.43	1675.24
984.60	1609.70
984.77	1693.67
984.93	1628.14
985.10	1634.28
985.27	1662.95
985.43	1599.46
985.60	1566.70
985.77	1667.05
985.93	1658.85
986.10	1548.26
986.27	1644.52
986.43	1603.56
986.60	1619.94
986.77	1576.94
986.93	1648.61
987.10	1597.42
987.27	1581.03
987.43	1624.04
987.60	1603.56
987.77	1603.56
987.93	1597.42
988.10	1564.65
988.27	1578.98
988.43	1656.81
988.60	1558.50
988.76	1683.43
988.93	1712.10
989.10	1601.51
989.26	1619.94
989.43	1617.90
989.60	1556.46
989.76	1636.33
989.93	1535.98
990.09	1558.50
990.26	1550.31
990.43	1644.52
990.59	1558.50
990.76	1585.13
990.92	1597.42
991.09	1529.83
991.26	1695.72
991.42	1570.79
991.59	1654.76
991.76	1497.07
991.92	1660.90
992.09	1613.80
992.25	1662.95
992.42	1660.90
992.58	1552.36
992.75	1624.04
992.92	1603.56
993.08	1589.22
993.25	1710.05
993.41	1564.65
993.58	1640.42
993.75	1648.61
993.91	1736.68
994.08	1642.47
994.24	1626.09
994.41	1589.22
994.57	1658.85
994.74	1658.85
994.91	1615.85
995.07	1581.03
995.24	1619.94
995.40	1587.18
995.57	1603.56
995.73	1658.85
995.90	1636.33
996.06	1660.90
996.23	1656.81
996.40	1624.04
996.56	1538.02
996.73	1591.27
996.89	1599.46
997.06	1574.89
997.22	1675.24
997.39	1548.26
997.55	1521.64
997.72	1650.66
997.88	1574.89
998.05	1589.22
998.21	1679.33
998.38	1636.33
998.54	1605.61
998.71	1599.46
998.87	1689.57
999.04	1578.98
999.21	1648.61
999.37	1732.58
999.54	1693.67
999.70	1540.07
999.87	1665.00
1000.03	1572.84
1000.20	1628.14
1000.36	1660.90
1000.53	1615.85
1000.69	1570.79
1000.86	1601.51
1001.02	1578.98
1001.19	1617.90
1001.35	1640.42
1001.52	1562.60
1001.68	1564.65
1001.84	1572.84
1002.01	1572.84
1002.17	1636.33
1002.34	1554.41
1002.50	1626.09
1002.67	1617.90
1002.83	1679.33
1003.00	1544.17
1003.16	1669.09
1003.33	1544.17
1003.49	1636.33
1003.66	1581.03
1003.82	1568.74
1003.99	1544.17
1004.15	1556.46
1004.32	1443.82
1004.48	1699.81
1004.64	1636.33
1004.81	1640.42
1004.97	1619.94
1005.14	1677.29
1005.30	1603.56
1005.47	1644.52
1005.63	1572.84
1005.80	1574.89
1005.96	1527.78
1006.12	1542.12
1006.29	1595.37
1006.45	1675.24
1006.62	1564.65
1006.78	1669.09
1006.95	1660.90
1007.11	1570.79
1007.27	1603.56
1007.44	1632.23
1007.60	1562.60
1007.77	1644.52
1007.93	1611.75
1008.09	1648.61
1008.26	1636.33
1008.42	1677.29
1008.59	1628.14
1008.75	1613.80
1008.92	1619.94
1009.08	1648.61
1009.24	1644.52
1009.41	1589.22
1009.57	1542.12
1009.73	1667.05
1009.90	1591.27
1010.06	1630.18
1010.23	1660.90
1010.39	1589.22
1010.55	1568.74
1010.72	1566.70
1010.88	1642.47
1011.05	1644.52
1011.21	1546.22
1011.37	1533.93
1011.54	1636.33
1011.70	1656.81
1011.86	1613.80
1012.03	1562.60
1012.19	1568.74
1012.36	1718.25
1012.52	1624.04
1012.68	1628.14
1012.85	1578.98
1013.01	1548.26
1013.17	1619.94
1013.34	1583.08
1013.50	1548.26
1013.66	1591.27
1013.83	1685.48
1013.99	1562.60
1014.15	1562.60
1014.32	1697.77
1014.48	1533.93
1014.64	1630.18
1014.81	1607.66
1014.97	1570.79
1015.13	1685.48
1015.30	1611.75
1015.46	1558.50
1015.62	1644.52
1015.79	1562.60
1015.95	1601.51
1016.11	1648.61
1016.28	1615.85
1016.44	1671.14
1016.60	1521.64
1016.77	1546.22
1016.93	1542.12
1017.09	1632.23
1017.26	1529.83
1017.42	1574.89
1017.58	1607.66
1017.74	1578.98
1017.91	1658.85
1018.07	1626.09
1018.23	1554.41
1018.40	1671.14
1018.56	1578.98
1018.72	1597.42
1018.88	1595.37
1019.05	1556.46
1019.21	1572.84
1019.37	1685.48
1019.54	1574.89
1019.70	1603.56
1019.86	1546.22
1020.02	1566.70
1020.19	1613.80
1020.35	1564.65
1020.51	1595.37
1020.68	1574.89
1020.84	1656.81
1021.00	1685.48
1021.16	1650.66
1021.33	1662.95
1021.49	1603.56
1021.65	1540.07
1021.81	1535.98
1021.98	1624.04
1022.14	1632.23
1022.30	1581.03
1022.46	1644.52
1022.63	1624.04
1022.79	1652.71
1022.95	1540.07
1023.11	1554.41
1023.27	1591.27
1023.44	1591.27
1023.60	1538.02
1023.76	1621.99
1023.92	1640.42
1024.09	1636.33
1024.25	1671.14
1024.41	1665.00
1024.57	1662.95
1024.74	1521.64
1024.90	1564.65
1025.06	1628.14
1025.22	1531.88
1025.38	1570.79
1025.55	1597.42
1025.71	1607.66
1025.87	1624.04
1026.03	1628.14
1026.19	1632.23
1026.36	1564.65
1026.52	1599.46
1026.68	1513.45
1026.84	1554.41
1027.00	1511.40
1027.17	1660.90
1027.33	1646.57
1027.49	1603.56
1027.65	1597.42
1027.81	1646.57
1027.97	1613.80
1028.14	1642.47
1028.30	1671.14
1028.46	1611.75
1028.62	1646.57
1028.78	1617.90
1028.94	1591.27
1029.11	1621.99
1029.27	1628.14
1029.43	1630.18
1029.59	1685.48
1029.75	1519.59
1029.91	1593.32
1030.08	1613.80
1030.24	1566.70
1030.40	1591.27
1030.56	1546.22
1030.72	1607.66
1030.88	1587.18
1031.04	1648.61
1031.21	1576.94
1031.37	1652.71
1031.53	1554.41
1031.69	1591.27
1031.85	1650.66
1032.01	1595.37
1032.17	1681.38
1032.34	1644.52
1032.50	1642.47
1032.66	1558.50
1032.82	1646.57
1032.98	1603.56
1033.14	1630.18
1033.30	1613.80
1033.46	1568.74
1033.62	1667.05
1033.79	1603.56
1033.95	1671.14
1034.11	1634.28
1034.27	1595.37
1034.43	1556.46
1034.59	1562.60
1034.75	1605.61
1034.91	1644.52
1035.07	1601.51
1035.23	1562.60
1035.40	1603.56
1035.56	1693.67
1035.72	1744.87
1035.88	1533.93
1036.04	1578.98
1036.20	1632.23
>>>>>End Processed Spectral Data<<<<<
