SpectraSuite Data File
++++++++++++++++++++++++++++++++++++
Date: Fri May 12 15:41:40 EDT 2017
User: jcherston
Dark Spectrum Present: Yes
Reference Spectrum Present: Yes
Number of Sampled Component Spectra: 1
Spectrometers: USB4F06975
Integration Time (usec): 100000 (USB4F06975)
Spectra Averaged: 1 (USB4F06975)
Boxcar Smoothing: 0 (USB4F06975)
Correct for Electrical Dark: No (USB4F06975)
Strobe/Lamp Enabled: No (USB4F06975)
Correct for Detector Non-linearity: No (USB4F06975)
Correct for Stray Light: No (USB4F06975)
Number of Pixels in Processed Spectrum: 3648
>>>>>Begin Processed Spectral Data<<<<<
346.57	1546.22
346.78	1546.22
346.99	1546.22
347.20	1464.30
347.41	1460.20
347.62	1611.75
347.83	1619.94
348.04	1576.94
348.25	1558.50
348.46	1611.75
348.67	1683.43
348.88	1597.42
349.09	1544.17
349.30	1701.86
349.51	1615.85
349.72	1591.27
349.93	1554.41
350.14	1591.27
350.35	1554.41
350.56	1619.94
350.77	1789.92
350.98	1638.38
351.19	1609.70
351.40	1603.56
351.61	1593.32
351.82	1642.47
352.03	1544.17
352.24	1687.53
352.45	1646.57
352.66	1609.70
352.87	1574.89
353.08	1595.37
353.29	1603.56
353.50	1644.52
353.71	1630.18
353.92	1560.55
354.13	1525.74
354.34	1619.94
354.55	1595.37
354.76	1626.09
354.97	1603.56
355.18	1619.94
355.39	1644.52
355.60	1626.09
355.80	1605.61
356.01	1525.74
356.22	1624.04
356.43	1652.71
356.64	1644.52
356.85	1558.50
357.06	1636.33
357.27	1607.66
357.48	1609.70
357.69	1599.46
357.90	1626.09
358.11	1673.19
358.32	1621.99
358.53	1626.09
358.74	1595.37
358.95	1595.37
359.16	1753.06
359.37	1558.50
359.58	1607.66
359.79	1585.13
360.00	1654.76
360.21	1640.42
360.42	1546.22
360.63	1490.92
360.84	1562.60
361.05	1568.74
361.26	1562.60
361.46	1611.75
361.67	1638.38
361.88	1615.85
362.09	1589.22
362.30	1656.81
362.51	1646.57
362.72	1726.44
362.93	1587.18
363.14	1628.14
363.35	1570.79
363.56	1589.22
363.77	1595.37
363.98	1695.72
364.19	1714.15
364.40	1538.02
364.61	1634.28
364.82	1560.55
365.03	1621.99
365.24	1630.18
365.44	1505.26
365.65	1576.94
365.86	1632.23
366.07	1574.89
366.28	1642.47
366.49	1621.99
366.70	1597.42
366.91	1640.42
367.12	1605.61
367.33	1615.85
367.54	1634.28
367.75	1683.43
367.96	1523.69
368.17	1605.61
368.38	1671.14
368.58	1591.27
368.79	1599.46
369.00	1624.04
369.21	1648.61
369.42	1597.42
369.63	1703.91
369.84	1662.95
370.05	1605.61
370.26	1632.23
370.47	1644.52
370.68	1652.71
370.89	1648.61
371.09	1576.94
371.30	1642.47
371.51	1619.94
371.72	1583.08
371.93	1644.52
372.14	1554.41
372.35	1650.66
372.56	1552.36
372.77	1554.41
372.98	1634.28
373.19	1591.27
373.40	1583.08
373.60	1656.81
373.81	1597.42
374.02	1525.74
374.23	1599.46
374.44	1578.98
374.65	1650.66
374.86	1648.61
375.07	1578.98
375.28	1595.37
375.49	1667.05
375.69	1597.42
375.90	1671.14
376.11	1515.50
376.32	1570.79
376.53	1646.57
376.74	1638.38
376.95	1589.22
377.16	1642.47
377.37	1599.46
377.58	1654.76
377.78	1589.22
377.99	1507.30
378.20	1652.71
378.41	1624.04
378.62	1603.56
378.83	1595.37
379.04	1644.52
379.25	1724.39
379.46	1607.66
379.66	1529.83
379.87	1646.57
380.08	1693.67
380.29	1619.94
380.50	1665.00
380.71	1615.85
380.92	1583.08
381.13	1591.27
381.33	1533.93
381.54	1624.04
381.75	1554.41
381.96	1574.89
382.17	1660.90
382.38	1644.52
382.59	1583.08
382.80	1609.70
383.00	1677.29
383.21	1628.14
383.42	1611.75
383.63	1497.07
383.84	1615.85
384.05	1558.50
384.26	1603.56
384.47	1587.18
384.67	1613.80
384.88	1538.02
385.09	1611.75
385.30	1601.51
385.51	1605.61
385.72	1527.78
385.93	1634.28
386.13	1578.98
386.34	1603.56
386.55	1570.79
386.76	1542.12
386.97	1562.60
387.18	1542.12
387.39	1538.02
387.59	1626.09
387.80	1656.81
388.01	1636.33
388.22	1570.79
388.43	1677.29
388.64	1624.04
388.85	1667.05
389.05	1564.65
389.26	1613.80
389.47	1617.90
389.68	1558.50
389.89	1564.65
390.10	1583.08
390.31	1578.98
390.51	1660.90
390.72	1605.61
390.93	1611.75
391.14	1613.80
391.35	1578.98
391.56	1611.75
391.76	1576.94
391.97	1654.76
392.18	1533.93
392.39	1603.56
392.60	1726.44
392.81	1550.31
393.01	1531.88
393.22	1615.85
393.43	1638.38
393.64	1581.03
393.85	1615.85
394.06	1632.23
394.26	1628.14
394.47	1554.41
394.68	1759.21
394.89	1566.70
395.10	1630.18
395.31	1634.28
395.51	1650.66
395.72	1652.71
395.93	1621.99
396.14	1613.80
396.35	1644.52
396.55	1572.84
396.76	1599.46
396.97	1613.80
397.18	1556.46
397.39	1540.07
397.60	1603.56
397.80	1550.31
398.01	1529.83
398.22	1718.25
398.43	1636.33
398.64	1578.98
398.84	1570.79
399.05	1646.57
399.26	1591.27
399.47	1599.46
399.68	1619.94
399.88	1656.81
400.09	1611.75
400.30	1525.74
400.51	1566.70
400.72	1615.85
400.92	1523.69
401.13	1605.61
401.34	1621.99
401.55	1613.80
401.76	1656.81
401.96	1621.99
402.17	1665.00
402.38	1646.57
402.59	1656.81
402.80	1910.75
403.00	1617.90
403.21	1570.79
403.42	1556.46
403.63	1609.70
403.84	1521.64
404.04	1611.75
404.25	1613.80
404.46	1564.65
404.67	1587.18
404.88	1652.71
405.08	1730.53
405.29	1677.29
405.50	1574.89
405.71	1605.61
405.91	1632.23
406.12	1572.84
406.33	1550.31
406.54	1615.85
406.75	1570.79
406.95	1548.26
407.16	1613.80
407.37	1570.79
407.58	1601.51
407.78	2004.96
407.99	1607.66
408.20	1574.89
408.41	1648.61
408.62	1591.27
408.82	1591.27
409.03	1521.64
409.24	1578.98
409.45	1591.27
409.65	1636.33
409.86	1640.42
410.07	1687.53
410.28	1517.54
410.48	1609.70
410.69	1744.87
410.90	1578.98
411.11	1652.71
411.31	1597.42
411.52	1564.65
411.73	1636.33
411.94	1624.04
412.14	1572.84
412.35	1615.85
412.56	1564.65
412.77	1556.46
412.98	1603.56
413.18	1603.56
413.39	1652.71
413.60	1703.91
413.81	1632.23
414.01	1554.41
414.22	1544.17
414.43	1621.99
414.64	1546.22
414.84	1556.46
415.05	1546.22
415.26	1636.33
415.46	1605.61
415.67	1603.56
415.88	1552.36
416.09	1499.11
416.29	1599.46
416.50	1677.29
416.71	1589.22
416.92	1603.56
417.12	1566.70
417.33	1642.47
417.54	1648.61
417.75	1634.28
417.95	1632.23
418.16	1589.22
418.37	1638.38
418.58	1605.61
418.78	1554.41
418.99	1628.14
419.20	1609.70
419.40	1669.09
419.61	1578.98
419.82	1587.18
420.03	1595.37
420.23	1611.75
420.44	1652.71
420.65	1611.75
420.85	1628.14
421.06	1603.56
421.27	1615.85
421.48	1667.05
421.68	1636.33
421.89	1587.18
422.10	1609.70
422.30	1611.75
422.51	1630.18
422.72	1597.42
422.93	1581.03
423.13	1603.56
423.34	1581.03
423.55	1603.56
423.75	1628.14
423.96	1665.00
424.17	1630.18
424.38	1607.66
424.58	1548.26
424.79	1562.60
425.00	1552.36
425.20	1601.51
425.41	1681.38
425.62	1572.84
425.83	1535.98
426.03	1523.69
426.24	1587.18
426.45	1560.55
426.65	1626.09
426.86	1521.64
427.07	1568.74
427.27	1656.81
427.48	1621.99
427.69	1636.33
427.89	1615.85
428.10	1693.67
428.31	1638.38
428.52	1611.75
428.72	1583.08
428.93	1646.57
429.14	1603.56
429.34	1630.18
429.55	1624.04
429.76	1589.22
429.96	1585.13
430.17	1656.81
430.38	1619.94
430.58	1538.02
430.79	1619.94
431.00	1548.26
431.20	1597.42
431.41	1521.64
431.62	1669.09
431.82	1617.90
432.03	1640.42
432.24	1538.02
432.44	1671.14
432.65	1615.85
432.86	1574.89
433.06	1570.79
433.27	1578.98
433.48	1628.14
433.68	1605.61
433.89	1677.29
434.10	1640.42
434.30	1658.85
434.51	1533.93
434.72	1576.94
434.92	1628.14
435.13	1603.56
435.34	1640.42
435.54	1564.65
435.75	1624.04
435.96	1550.31
436.16	1671.14
436.37	1490.92
436.58	1521.64
436.78	1597.42
436.99	1595.37
437.20	1726.44
437.40	1650.66
437.61	1638.38
437.82	1562.60
438.02	1667.05
438.23	1562.60
438.43	1632.23
438.64	1615.85
438.85	1662.95
439.05	1638.38
439.26	1587.18
439.47	1685.48
439.67	1574.89
439.88	1644.52
440.09	1511.40
440.29	1662.95
440.50	1615.85
440.71	1581.03
440.91	1638.38
441.12	1685.48
441.32	1538.02
441.53	1570.79
441.74	1628.14
441.94	1578.98
442.15	1527.78
442.36	1638.38
442.56	1701.86
442.77	1597.42
442.97	1619.94
443.18	1675.24
443.39	1607.66
443.59	1603.56
443.80	1546.22
444.01	1642.47
444.21	1718.25
444.42	1630.18
444.62	1564.65
444.83	1556.46
445.04	1644.52
445.24	1568.74
445.45	1548.26
445.66	1640.42
445.86	1601.51
446.07	1587.18
446.27	1611.75
446.48	1621.99
446.69	1621.99
446.89	1621.99
447.10	1599.46
447.30	1632.23
447.51	1630.18
447.72	1669.09
447.92	1644.52
448.13	1611.75
448.33	1607.66
448.54	1665.00
448.75	1578.98
448.95	1578.98
449.16	1482.73
449.36	1595.37
449.57	1628.14
449.78	1763.30
449.98	1566.70
450.19	1599.46
450.39	1632.23
450.60	1630.18
450.81	1621.99
451.01	1521.64
451.22	1628.14
451.42	1583.08
451.63	1591.27
451.84	1603.56
452.04	1615.85
452.25	1626.09
452.45	1595.37
452.66	1628.14
452.86	1603.56
453.07	1619.94
453.28	1480.68
453.48	1712.10
453.69	1597.42
453.89	1626.09
454.10	1677.29
454.30	1701.86
454.51	1578.98
454.72	1601.51
454.92	1587.18
455.13	1589.22
455.33	1558.50
455.54	1613.80
455.74	1628.14
455.95	1619.94
456.16	1544.17
456.36	1605.61
456.57	1562.60
456.77	1593.32
456.98	1652.71
457.18	1593.32
457.39	1607.66
457.60	1677.29
457.80	1660.90
458.01	1667.05
458.21	1613.80
458.42	1621.99
458.62	1597.42
458.83	1521.64
459.03	1603.56
459.24	1660.90
459.45	1583.08
459.65	1566.70
459.86	1703.91
460.06	1615.85
460.27	1599.46
460.47	1589.22
460.68	1640.42
460.88	1671.14
461.09	1605.61
461.30	1650.66
461.50	1636.33
461.71	1624.04
461.91	1587.18
462.12	1603.56
462.32	1656.81
462.53	1546.22
462.73	1560.55
462.94	1630.18
463.14	1642.47
463.35	1595.37
463.55	1619.94
463.76	1632.23
463.96	1652.71
464.17	1644.52
464.38	1611.75
464.58	1636.33
464.79	1626.09
464.99	1589.22
465.20	1632.23
465.40	1630.18
465.61	1556.46
465.81	1656.81
466.02	1710.05
466.22	1660.90
466.43	1581.03
466.63	1578.98
466.84	1693.67
467.04	1626.09
467.25	1621.99
467.45	1687.53
467.66	1636.33
467.86	1595.37
468.07	1533.93
468.27	1650.66
468.48	1650.66
468.68	1693.67
468.89	1660.90
469.09	1521.64
469.30	1630.18
469.51	1638.38
469.71	1755.11
469.92	1591.27
470.12	1673.19
470.33	1628.14
470.53	1525.74
470.74	1652.71
470.94	1589.22
471.15	1609.70
471.35	1998.82
471.56	1714.15
471.76	1652.71
471.97	1576.94
472.17	1558.50
472.38	1687.53
472.58	1693.67
472.78	1652.71
472.99	1542.12
473.19	1566.70
473.40	1615.85
473.60	1710.05
473.81	1562.60
474.01	1591.27
474.22	1667.05
474.42	1648.61
474.63	1677.29
474.83	1611.75
475.04	1611.75
475.24	1660.90
475.45	1648.61
475.65	1591.27
475.86	1560.55
476.06	1589.22
476.27	1581.03
476.47	1636.33
476.68	1613.80
476.88	1593.32
477.09	1613.80
477.29	1581.03
477.50	1607.66
477.70	1648.61
477.90	1624.04
478.11	1685.48
478.31	1665.00
478.52	1599.46
478.72	1560.55
478.93	1589.22
479.13	1660.90
479.34	1628.14
479.54	1566.70
479.75	1613.80
479.95	1628.14
480.16	1683.43
480.36	1665.00
480.56	1556.46
480.77	1630.18
480.97	1699.81
481.18	1685.48
481.38	1660.90
481.59	1589.22
481.79	1621.99
482.00	1660.90
482.20	1703.91
482.41	1894.37
482.61	1638.38
482.81	1677.29
483.02	1660.90
483.22	1607.66
483.43	1673.19
483.63	1701.86
483.84	1628.14
484.04	1628.14
484.24	1652.71
484.45	1673.19
484.65	1689.57
484.86	1626.09
485.06	1591.27
485.27	1732.58
485.47	1681.38
485.68	1685.48
485.88	1517.54
486.08	1615.85
486.29	1669.09
486.49	1730.53
486.70	1628.14
486.90	1712.10
487.11	1728.49
487.31	1605.61
487.51	1540.07
487.72	1724.39
487.92	1705.96
488.13	1705.96
488.33	1552.36
488.53	1603.56
488.74	1667.05
488.94	1595.37
489.15	1669.09
489.35	1646.57
489.56	1583.08
489.76	1720.29
489.96	1556.46
490.17	1658.85
490.37	1646.57
490.58	1718.25
490.78	1693.67
490.98	1578.98
491.19	1636.33
491.39	1632.23
491.60	1695.72
491.80	1660.90
492.00	1642.47
492.21	1591.27
492.41	1703.91
492.62	1624.04
492.82	1615.85
493.02	1640.42
493.23	1728.49
493.43	1693.67
493.64	1650.66
493.84	1611.75
494.04	1671.14
494.25	1665.00
494.45	1658.85
494.66	1689.57
494.86	1769.44
495.06	1677.29
495.27	1634.28
495.47	1705.96
495.67	1607.66
495.88	1652.71
496.08	1722.34
496.29	1718.25
496.49	1662.95
496.69	1634.28
496.90	1697.77
497.10	1603.56
497.30	1689.57
497.51	1677.29
497.71	1742.82
497.92	1757.16
498.12	1685.48
498.32	1658.85
498.53	1726.44
498.73	1734.63
498.93	1675.24
499.14	1718.25
499.34	1617.90
499.55	1630.18
499.75	1703.91
499.95	1689.57
500.16	1767.40
500.36	1658.85
500.56	1724.39
500.77	1624.04
500.97	1785.83
501.17	1646.57
501.38	1632.23
501.58	1681.38
501.79	1701.86
501.99	1609.70
502.19	1685.48
502.40	1656.81
502.60	1624.04
502.80	1587.18
503.01	1669.09
503.21	1695.72
503.41	1628.14
503.62	1730.53
503.82	1595.37
504.02	1679.33
504.23	1599.46
504.43	1726.44
504.63	1773.54
504.84	1654.76
505.04	1718.25
505.24	1748.97
505.45	1628.14
505.65	1660.90
505.85	1646.57
506.06	1695.72
506.26	1759.21
506.46	1671.14
506.67	1669.09
506.87	1691.62
507.07	1652.71
507.28	1615.85
507.48	1712.10
507.68	1646.57
507.89	1621.99
508.09	1744.87
508.29	1611.75
508.50	1714.15
508.70	1775.59
508.90	1667.05
509.11	1783.78
509.31	1796.07
509.51	1669.09
509.72	1744.87
509.92	1673.19
510.12	1759.21
510.32	1736.68
510.53	1619.94
510.73	1658.85
510.93	1703.91
511.14	1671.14
511.34	1701.86
511.54	1693.67
511.75	1656.81
511.95	1658.85
512.15	1673.19
512.36	1746.92
512.56	1693.67
512.76	1701.86
512.96	1791.97
513.17	1732.58
513.37	1732.58
513.57	1669.09
513.78	1748.97
513.98	1675.24
514.18	1669.09
514.38	1669.09
514.59	1660.90
514.79	1669.09
514.99	1667.05
515.20	1669.09
515.40	1632.23
515.60	1763.30
515.80	1693.67
516.01	1654.76
516.21	1710.05
516.41	1609.70
516.62	1740.77
516.82	1703.91
517.02	1718.25
517.22	1712.10
517.43	1751.01
517.63	1636.33
517.83	1689.57
518.04	1753.06
518.24	1648.61
518.44	1693.67
518.64	1718.25
518.85	1730.53
519.05	1636.33
519.25	1632.23
519.45	1734.63
519.66	1685.48
519.86	1605.61
520.06	1644.52
520.26	1671.14
520.47	1624.04
520.67	1628.14
520.87	1738.73
521.08	1712.10
521.28	1662.95
521.48	1705.96
521.68	1720.29
521.89	1765.35
522.09	1810.40
522.29	1716.20
522.49	1626.09
522.70	1824.74
522.90	1834.98
523.10	1681.38
523.30	1628.14
523.51	1695.72
523.71	1738.73
523.91	1640.42
524.11	1718.25
524.31	1710.05
524.52	1783.78
524.72	1687.53
524.92	1791.97
525.12	1746.92
525.33	1685.48
525.53	1722.34
525.73	1720.29
525.93	1662.95
526.14	1685.48
526.34	1681.38
526.54	1658.85
526.74	1738.73
526.95	1822.69
527.15	1712.10
527.35	1697.77
527.55	1751.01
527.75	1681.38
527.96	1730.53
528.16	1693.67
528.36	1619.94
528.56	1628.14
528.77	1634.28
528.97	1751.01
529.17	1714.15
529.37	1654.76
529.57	1738.73
529.78	1816.55
529.98	1738.73
530.18	1726.44
530.38	1703.91
530.58	1724.39
530.79	1685.48
530.99	1728.49
531.19	1695.72
531.39	1726.44
531.59	1769.44
531.80	1791.97
532.00	1712.10
532.20	1744.87
532.40	1587.18
532.60	1697.77
532.81	1714.15
533.01	1699.81
533.21	1728.49
533.41	1808.36
533.61	1738.73
533.82	1761.25
534.02	1669.09
534.22	1710.05
534.42	1703.91
534.62	1736.68
534.83	1660.90
535.03	1763.30
535.23	1685.48
535.43	1730.53
535.63	1712.10
535.83	1804.26
536.04	1726.44
536.24	1814.50
536.44	1650.66
536.64	1761.25
536.84	1734.63
537.05	1712.10
537.25	1767.40
537.45	1779.68
537.65	1757.16
537.85	1718.25
538.05	1726.44
538.26	1767.40
538.46	1718.25
538.66	1826.79
538.86	1716.20
539.06	1751.01
539.26	1769.44
539.47	1718.25
539.67	1738.73
539.87	1728.49
540.07	1834.98
540.27	1730.53
540.47	1740.77
540.68	1763.30
540.88	1798.12
541.08	1761.25
541.28	1699.81
541.48	1701.86
541.68	1775.59
541.88	1857.51
542.09	1761.25
542.29	1720.29
542.49	1804.26
542.69	1886.18
542.89	1767.40
543.09	1771.49
543.29	1779.68
543.50	1785.83
543.70	1669.09
543.90	1744.87
544.10	1751.01
544.30	1759.21
544.50	1755.11
544.70	1738.73
544.91	1773.54
545.11	1787.88
545.31	1814.50
545.51	1820.64
545.71	1824.74
545.91	1845.22
546.11	1796.07
546.31	1771.49
546.52	1851.36
546.72	1791.97
546.92	1734.63
547.12	1783.78
547.32	1732.58
547.52	1718.25
547.72	1720.29
547.92	1822.69
548.13	1834.98
548.33	1808.36
548.53	1824.74
548.73	1777.64
548.93	1791.97
549.13	1767.40
549.33	1755.11
549.53	1701.86
549.73	1679.33
549.94	1703.91
550.14	1810.40
550.34	1777.64
550.54	1769.44
550.74	1767.40
550.94	1816.55
551.14	1800.16
551.34	1824.74
551.54	1859.56
551.74	1761.25
551.95	1791.97
552.15	1830.88
552.35	1787.88
552.55	1726.44
552.75	1849.32
552.95	1773.54
553.15	1800.16
553.35	1746.92
553.55	1763.30
553.75	1744.87
553.95	1738.73
554.16	1712.10
554.36	1701.86
554.56	1775.59
554.76	1738.73
554.96	1769.44
555.16	1783.78
555.36	1816.55
555.56	1845.22
555.76	1751.01
555.96	1773.54
556.16	1685.48
556.36	1804.26
556.57	1791.97
556.77	1769.44
556.97	1787.88
557.17	1753.06
557.37	1820.64
557.57	1759.21
557.77	1742.82
557.97	1681.38
558.17	1810.40
558.37	1855.46
558.57	1875.94
558.77	1830.88
558.97	1765.35
559.17	1738.73
559.37	1759.21
559.57	1767.40
559.78	1771.49
559.98	1783.78
560.18	1734.63
560.38	1802.21
560.58	1783.78
560.78	1822.69
560.98	1785.83
561.18	1816.55
561.38	1732.58
561.58	1746.92
561.78	1802.21
561.98	1791.97
562.18	1794.02
562.38	1855.46
562.58	1810.40
562.78	1714.15
562.98	1828.84
563.18	1751.01
563.38	1753.06
563.58	1761.25
563.78	1882.08
563.98	1755.11
564.18	1789.92
564.38	1726.44
564.58	1773.54
564.79	1845.22
564.99	1734.63
565.19	1828.84
565.39	1863.65
565.59	1796.07
565.79	1632.23
565.99	1824.74
566.19	1837.03
566.39	1861.60
566.59	1794.02
566.79	1742.82
566.99	1769.44
567.19	1796.07
567.39	1722.34
567.59	1746.92
567.79	1798.12
567.99	1781.73
568.19	1857.51
568.39	1722.34
568.59	1734.63
568.79	1796.07
568.99	1761.25
569.19	1814.50
569.39	1779.68
569.59	1783.78
569.79	1746.92
569.99	1794.02
570.19	1759.21
570.39	1861.60
570.59	1824.74
570.79	1820.64
570.99	1863.65
571.19	1751.01
571.39	1759.21
571.59	1857.51
571.79	1683.43
571.99	1873.89
572.19	1839.08
572.39	1875.94
572.59	1820.64
572.79	1714.15
572.99	1759.21
573.19	1783.78
573.39	1796.07
573.59	1794.02
573.79	1718.25
573.99	1843.17
574.19	1818.60
574.38	1753.06
574.58	1800.16
574.78	1822.69
574.98	1834.98
575.18	1781.73
575.38	1734.63
575.58	1808.36
575.78	1794.02
575.98	1726.44
576.18	1701.86
576.38	1787.88
576.58	1771.49
576.78	1767.40
576.98	1841.12
577.18	1734.63
577.38	1759.21
577.58	1775.59
577.78	1808.36
577.98	1751.01
578.18	1810.40
578.38	1763.30
578.58	1787.88
578.78	1777.64
578.98	1871.84
579.18	1839.08
579.37	1843.17
579.57	1830.88
579.77	1898.47
579.97	1744.87
580.17	1796.07
580.37	1779.68
580.57	1812.45
580.77	1818.60
580.97	2199.52
581.17	1851.36
581.37	1841.12
581.57	1701.86
581.77	1775.59
581.97	1810.40
582.17	1849.32
582.37	1871.84
582.56	1814.50
582.76	1832.93
582.96	1800.16
583.16	1910.75
583.36	1777.64
583.56	1781.73
583.76	1751.01
583.96	1787.88
584.16	1867.75
584.36	1912.80
584.56	1816.55
584.76	1888.23
584.95	1759.21
585.15	1761.25
585.35	1820.64
585.55	1720.29
585.75	1781.73
585.95	1822.69
586.15	1822.69
586.35	1785.83
586.55	1824.74
586.75	1818.60
586.95	1810.40
587.14	1810.40
587.34	1818.60
587.54	1767.40
587.74	1865.70
587.94	1742.82
588.14	1931.23
588.34	1796.07
588.54	1849.32
588.74	1875.94
588.94	1818.60
589.13	1857.51
589.33	1828.84
589.53	1820.64
589.73	1863.65
589.93	1873.89
590.13	1914.85
590.33	1761.25
590.53	1791.97
590.72	1832.93
590.92	1863.65
591.12	1730.53
591.32	1800.16
591.52	1873.89
591.72	1763.30
591.92	1886.18
592.12	1832.93
592.32	1861.60
592.51	1783.78
592.71	1847.27
592.91	1787.88
593.11	1763.30
593.31	1697.77
593.51	1867.75
593.71	1880.04
593.90	1841.12
594.10	1671.14
594.30	1890.28
594.50	1904.61
594.70	1810.40
594.90	1796.07
595.10	1828.84
595.29	1837.03
595.49	1869.80
595.69	1843.17
595.89	1796.07
596.09	1849.32
596.29	1925.09
596.49	1837.03
596.68	1820.64
596.88	1859.56
597.08	1880.04
597.28	1863.65
597.48	1865.70
597.68	1841.12
597.87	1896.42
598.07	1822.69
598.27	1826.79
598.47	1884.13
598.67	1863.65
598.87	1857.51
599.06	1912.80
599.26	1845.22
599.46	1873.89
599.66	1812.45
599.86	1882.08
600.06	1914.85
600.25	1880.04
600.45	1939.43
600.65	1875.94
600.85	1855.46
601.05	1849.32
601.25	1859.56
601.44	1841.12
601.64	1853.41
601.84	1894.37
602.04	1832.93
602.24	1816.55
602.43	1814.50
602.63	1808.36
602.83	1810.40
603.03	1859.56
603.23	1871.84
603.42	1837.03
603.62	1787.88
603.82	1894.37
604.02	1839.08
604.22	1865.70
604.42	1773.54
604.61	1849.32
604.81	1867.75
605.01	1882.08
605.21	2258.91
605.40	1734.63
605.60	1822.69
605.80	1880.04
606.00	1888.23
606.20	1873.89
606.39	1841.12
606.59	1916.90
606.79	1869.80
606.99	1900.52
607.19	1935.33
607.38	1867.75
607.58	1839.08
607.78	1857.51
607.98	1918.95
608.18	1794.02
608.37	1861.60
608.57	1898.47
608.77	1890.28
608.97	1826.79
609.16	1837.03
609.36	1877.99
609.56	1849.32
609.76	1818.60
609.95	1812.45
610.15	1996.77
610.35	1886.18
610.55	1869.80
610.75	1931.23
610.94	1900.52
611.14	1945.57
611.34	1859.56
611.54	1873.89
611.73	1943.52
611.93	1906.66
612.13	1939.43
612.33	1875.94
612.52	1941.47
612.72	1884.13
612.92	1896.42
613.12	1898.47
613.31	1914.85
613.51	1978.34
613.71	1890.28
613.91	1875.94
614.10	1892.32
614.30	1941.47
614.50	1904.61
614.70	1900.52
614.89	1882.08
615.09	1882.08
615.29	1931.23
615.49	1880.04
615.68	1949.67
615.88	1898.47
616.08	1910.75
616.27	1884.13
616.47	1927.14
616.67	1861.60
616.87	1900.52
617.06	1796.07
617.26	1947.62
617.46	1951.71
617.66	1843.17
617.85	1914.85
618.05	1830.88
618.25	1898.47
618.44	1964.00
618.64	1806.31
618.84	1880.04
619.04	1943.52
619.23	1931.23
619.43	1830.88
619.63	1933.28
619.82	1890.28
620.02	1843.17
620.22	1880.04
620.42	1880.04
620.61	1855.46
620.81	1880.04
621.01	1845.22
621.20	1892.32
621.40	1906.66
621.60	1964.00
621.79	1902.56
621.99	1949.67
622.19	1898.47
622.39	1888.23
622.58	1986.53
622.78	1912.80
622.98	1955.81
623.17	1916.90
623.37	2328.54
623.57	1900.52
623.76	1890.28
623.96	1982.43
624.16	1959.91
624.35	1927.14
624.55	1830.88
624.75	2029.54
624.94	1845.22
625.14	1849.32
625.34	1841.12
625.53	1888.23
625.73	1886.18
625.93	1845.22
626.12	1951.71
626.32	1888.23
626.52	1925.09
626.71	1816.55
626.91	1939.43
627.11	1908.71
627.30	1877.99
627.50	1820.64
627.70	2004.96
627.89	1834.98
628.09	1812.45
628.29	1853.41
628.48	1849.32
628.68	1988.58
628.88	1845.22
629.07	1916.90
629.27	1812.45
629.47	1937.38
629.66	1849.32
629.86	1900.52
630.06	1839.08
630.25	1925.09
630.45	1837.03
630.65	1865.70
630.84	1927.14
631.04	1951.71
631.24	1802.21
631.43	1966.05
631.63	1935.33
631.82	1906.66
632.02	1941.47
632.22	1933.28
632.41	1873.89
632.61	1916.90
632.81	1918.95
633.00	1875.94
633.20	1853.41
633.39	1925.09
633.59	1859.56
633.79	1822.69
633.98	1832.93
634.18	1880.04
634.38	1808.36
634.57	1931.23
634.77	1873.89
634.96	1916.90
635.16	1818.60
635.36	1955.81
635.55	1929.19
635.75	1916.90
635.95	1898.47
636.14	2013.15
636.34	1957.86
636.53	1877.99
636.73	1916.90
636.93	1920.99
637.12	1890.28
637.32	1920.99
637.51	1898.47
637.71	1935.33
637.91	1933.28
638.10	1845.22
638.30	1886.18
638.49	1908.71
638.69	1988.58
638.89	1859.56
639.08	1882.08
639.28	1822.69
639.47	1865.70
639.67	1961.95
639.86	1937.38
640.06	1933.28
640.26	1980.39
640.45	1980.39
640.65	1906.66
640.84	1925.09
641.04	1923.04
641.24	1849.32
641.43	1902.56
641.63	1890.28
641.82	1873.89
642.02	1802.21
642.21	1951.71
642.41	1949.67
642.61	1925.09
642.80	1966.05
643.00	1964.00
643.19	1959.91
643.39	1886.18
643.58	1927.14
643.78	1869.80
643.97	1818.60
644.17	2060.26
644.37	1861.60
644.56	1837.03
644.76	1890.28
644.95	1910.75
645.15	1961.95
645.34	1877.99
645.54	1937.38
645.73	1996.77
645.93	1925.09
646.13	1972.19
646.32	1914.85
646.52	1886.18
646.71	1968.10
646.91	1820.64
647.10	1896.42
647.30	1970.15
647.49	1890.28
647.69	1904.61
647.88	1916.90
648.08	1957.86
648.28	1830.88
648.47	1884.13
648.67	1882.08
648.86	1914.85
649.06	1970.15
649.25	1853.41
649.45	1961.95
649.64	1923.04
649.84	1943.52
650.03	1918.95
650.23	1894.37
650.42	1927.14
650.62	1964.00
650.81	1892.32
651.01	1890.28
651.20	1959.91
651.40	1988.58
651.59	1943.52
651.79	1888.23
651.98	1912.80
652.18	1923.04
652.37	1865.70
652.57	2033.63
652.76	1978.34
652.96	1970.15
653.15	1908.71
653.35	1845.22
653.54	1949.67
653.74	1853.41
653.93	1931.23
654.13	1966.05
654.32	1839.08
654.52	1943.52
654.71	1974.24
654.91	1972.19
655.10	1916.90
655.30	2015.20
655.49	1900.52
655.69	1947.62
655.88	1945.57
656.08	1914.85
656.27	1961.95
656.47	1925.09
656.66	1843.17
656.86	2031.58
657.05	1972.19
657.25	1875.94
657.44	1957.86
657.64	1918.95
657.83	2058.21
658.03	1953.76
658.22	2062.30
658.42	1988.58
658.61	1972.19
658.80	1894.37
659.00	1931.23
659.19	1980.39
659.39	1966.05
659.58	1961.95
659.78	1955.81
659.97	1882.08
660.17	1992.67
660.36	1920.99
660.56	1875.94
660.75	1851.36
660.95	2017.25
661.14	1978.34
661.33	1877.99
661.53	1884.13
661.72	1839.08
661.92	2017.25
662.11	1951.71
662.31	1888.23
662.50	1982.43
662.70	1945.57
662.89	1927.14
663.08	1931.23
663.28	2004.96
663.47	1896.42
663.67	1931.23
663.86	1941.47
664.06	1914.85
664.25	1959.91
664.44	1980.39
664.64	1884.13
664.83	1964.00
665.03	1843.17
665.22	1884.13
665.42	1939.43
665.61	2029.54
665.80	1814.50
666.00	1974.24
666.19	1964.00
666.39	1914.85
666.58	1908.71
666.77	1933.28
666.97	1906.66
667.16	1920.99
667.36	1974.24
667.55	1931.23
667.75	1964.00
667.94	1955.81
668.13	1877.99
668.33	2072.54
668.52	1853.41
668.72	1877.99
668.91	1896.42
669.10	1873.89
669.30	1970.15
669.49	1923.04
669.69	2023.39
669.88	1959.91
670.07	1943.52
670.27	1937.38
670.46	1904.61
670.66	1980.39
670.85	1955.81
671.04	1953.76
671.24	1972.19
671.43	1957.86
671.62	1970.15
671.82	1933.28
672.01	1912.80
672.21	1875.94
672.40	2004.96
672.59	1914.85
672.79	1894.37
672.98	1955.81
673.17	1939.43
673.37	1912.80
673.56	1970.15
673.76	1943.52
673.95	2007.01
674.14	2000.87
674.34	1918.95
674.53	1900.52
674.72	2002.91
674.92	1933.28
675.11	1931.23
675.30	1982.43
675.50	1976.29
675.69	1929.19
675.89	1925.09
676.08	2004.96
676.27	1986.53
676.47	1916.90
676.66	1865.70
676.85	1918.95
677.05	1906.66
677.24	1976.29
677.43	1966.05
677.63	1957.86
677.82	1943.52
678.01	1980.39
678.21	1898.47
678.40	1947.62
678.59	1996.77
678.79	1933.28
678.98	1943.52
679.17	1886.18
679.37	1957.86
679.56	1890.28
679.75	1970.15
679.95	1923.04
680.14	1972.19
680.33	1912.80
680.53	1968.10
680.72	1890.28
680.91	1976.29
681.11	1980.39
681.30	1935.33
681.49	1927.14
681.69	1947.62
681.88	1955.81
682.07	1916.90
682.26	2027.49
682.46	1939.43
682.65	1859.56
682.84	1964.00
683.04	1898.47
683.23	1964.00
683.42	1806.31
683.62	2004.96
683.81	1902.56
684.00	2027.49
684.20	1925.09
684.39	1933.28
684.58	1974.24
684.77	1957.86
684.97	1898.47
685.16	1869.80
685.35	1988.58
685.55	1951.71
685.74	1955.81
685.93	2004.96
686.12	1964.00
686.32	1959.91
686.51	2043.87
686.70	1933.28
686.90	2058.21
687.09	1964.00
687.28	1972.19
687.47	2007.01
687.67	2015.20
687.86	1945.57
688.05	1923.04
688.25	1865.70
688.44	1923.04
688.63	2007.01
688.82	1947.62
689.02	1914.85
689.21	1941.47
689.40	2011.11
689.59	1908.71
689.79	1888.23
689.98	1947.62
690.17	2031.58
690.36	2041.82
690.56	1964.00
690.75	1992.67
690.94	2037.73
691.13	1951.71
691.33	1927.14
691.52	1955.81
691.71	1873.89
691.90	2013.15
692.10	1816.55
692.29	1964.00
692.48	1978.34
692.67	1871.84
692.87	1904.61
693.06	1943.52
693.25	1955.81
693.44	1910.75
693.64	1943.52
693.83	1941.47
694.02	1941.47
694.21	1898.47
694.40	1941.47
694.60	1898.47
694.79	1900.52
694.98	1929.19
695.17	1988.58
695.37	1894.37
695.56	1951.71
695.75	1918.95
695.94	1949.67
696.13	1904.61
696.33	1918.95
696.52	1970.15
696.71	1953.76
696.90	1816.55
697.10	1955.81
697.29	1947.62
697.48	1976.29
697.67	1968.10
697.86	1861.60
698.06	1951.71
698.25	1910.75
698.44	1951.71
698.63	1945.57
698.82	1937.38
699.02	1820.64
699.21	1906.66
699.40	1994.72
699.59	1886.18
699.78	2007.01
699.98	2000.87
700.17	1859.56
700.36	1918.95
700.55	1984.48
700.74	1939.43
700.93	1900.52
701.13	1968.10
701.32	1990.63
701.51	1939.43
701.70	2025.44
701.89	1955.81
702.09	1955.81
702.28	1902.56
702.47	1886.18
702.66	1908.71
702.85	1892.32
703.04	1918.95
703.24	1896.42
703.43	1951.71
703.62	1953.76
703.81	1902.56
704.00	2009.06
704.19	1912.80
704.39	1976.29
704.58	1927.14
704.77	1939.43
704.96	1953.76
705.15	2013.15
705.34	1980.39
705.54	1949.67
705.73	1914.85
705.92	1906.66
706.11	1959.91
706.30	1998.82
706.49	1908.71
706.68	1959.91
706.88	2027.49
707.07	1882.08
707.26	1953.76
707.45	1927.14
707.64	1976.29
707.83	1882.08
708.02	1865.70
708.22	2062.30
708.41	1951.71
708.60	1914.85
708.79	1904.61
708.98	1961.95
709.17	2054.11
709.36	1931.23
709.55	1935.33
709.75	1882.08
709.94	1828.84
710.13	1945.57
710.32	1886.18
710.51	1978.34
710.70	1961.95
710.89	1976.29
711.08	1939.43
711.27	1931.23
711.47	1982.43
711.66	1906.66
711.85	1955.81
712.04	1955.81
712.23	1890.28
712.42	1943.52
712.61	1935.33
712.80	1976.29
712.99	1957.86
713.19	1925.09
713.38	1966.05
713.57	1947.62
713.76	1966.05
713.95	1959.91
714.14	2027.49
714.33	1906.66
714.52	2017.25
714.71	1892.32
714.90	2004.96
715.09	1832.93
715.28	1896.42
715.48	1992.67
715.67	2043.87
715.86	2009.06
716.05	1857.51
716.24	1974.24
716.43	1923.04
716.62	1945.57
716.81	1996.77
717.00	2039.78
717.19	2015.20
717.38	1939.43
717.57	1927.14
717.76	2052.06
717.96	1865.70
718.15	1869.80
718.34	1900.52
718.53	2004.96
718.72	1927.14
718.91	1955.81
719.10	1955.81
719.29	1916.90
719.48	1910.75
719.67	1927.14
719.86	2029.54
720.05	1955.81
720.24	1890.28
720.43	1968.10
720.62	1968.10
720.81	1990.63
721.00	1945.57
721.19	1982.43
721.38	1875.94
721.57	1818.60
721.77	2045.92
721.96	1914.85
722.15	1927.14
722.34	1941.47
722.53	1890.28
722.72	1894.37
722.91	1982.43
723.10	1992.67
723.29	1908.71
723.48	1933.28
723.67	1972.19
723.86	1980.39
724.05	1912.80
724.24	1974.24
724.43	1853.41
724.62	1990.63
724.81	1906.66
725.00	1988.58
725.19	1937.38
725.38	2000.87
725.57	1939.43
725.76	2029.54
725.95	1953.76
726.14	1968.10
726.33	1892.32
726.52	1955.81
726.71	2007.01
726.90	1902.56
727.09	1964.00
727.28	1939.43
727.47	1939.43
727.66	1912.80
727.85	1918.95
728.04	1877.99
728.23	1884.13
728.42	2031.58
728.61	1892.32
728.80	1974.24
728.99	1900.52
729.18	1982.43
729.37	1845.22
729.56	1982.43
729.75	1914.85
729.94	1988.58
730.13	1959.91
730.32	1886.18
730.51	1929.19
730.70	2015.20
730.89	1898.47
731.08	2021.35
731.27	1890.28
731.46	1941.47
731.65	1988.58
731.84	1925.09
732.03	1916.90
732.21	2013.15
732.40	2011.11
732.59	1964.00
732.78	1957.86
732.97	2035.68
733.16	1916.90
733.35	1974.24
733.54	1906.66
733.73	2013.15
733.92	1888.23
734.11	1988.58
734.30	1884.13
734.49	1923.04
734.68	1933.28
734.87	1953.76
735.06	1939.43
735.25	1929.19
735.44	1933.28
735.63	1918.95
735.81	2035.68
736.00	2023.39
736.19	1982.43
736.38	1964.00
736.57	1961.95
736.76	1914.85
736.95	1947.62
737.14	1884.13
737.33	1925.09
737.52	1894.37
737.71	1920.99
737.90	1976.29
738.09	1849.32
738.28	1873.89
738.46	1892.32
738.65	1923.04
738.84	1992.67
739.03	1943.52
739.22	1978.34
739.41	2097.12
739.60	1970.15
739.79	1886.18
739.98	1861.60
740.17	1959.91
740.36	2007.01
740.54	1918.95
740.73	1943.52
740.92	1939.43
741.11	1935.33
741.30	2015.20
741.49	1906.66
741.68	1992.67
741.87	1959.91
742.06	1949.67
742.24	1947.62
742.43	1937.38
742.62	1892.32
742.81	2000.87
743.00	2025.44
743.19	1925.09
743.38	1923.04
743.57	2019.30
743.76	1908.71
743.94	2023.39
744.13	1986.53
744.32	1871.84
744.51	1937.38
744.70	1865.70
744.89	1929.19
745.08	1970.15
745.26	1920.99
745.45	1943.52
745.64	1986.53
745.83	1982.43
746.02	1882.08
746.21	1888.23
746.40	1957.86
746.58	1982.43
746.77	1949.67
746.96	1949.67
747.15	1931.23
747.34	2029.54
747.53	2027.49
747.72	1976.29
747.90	1894.37
748.09	1902.56
748.28	1976.29
748.47	1931.23
748.66	1916.90
748.85	1923.04
749.03	1961.95
749.22	1814.50
749.41	1970.15
749.60	1837.03
749.79	1871.84
749.98	1898.47
750.16	1970.15
750.35	1984.48
750.54	1873.89
750.73	1949.67
750.92	1916.90
751.11	1910.75
751.29	1947.62
751.48	1949.67
751.67	1920.99
751.86	1882.08
752.05	1918.95
752.24	1931.23
752.42	1955.81
752.61	1935.33
752.80	1832.93
752.99	1984.48
753.18	1976.29
753.36	1968.10
753.55	1992.67
753.74	1933.28
753.93	2084.83
754.12	1933.28
754.30	1871.84
754.49	2004.96
754.68	1935.33
754.87	1976.29
755.06	1900.52
755.24	1964.00
755.43	1920.99
755.62	1900.52
755.81	1857.51
755.99	1908.71
756.18	1923.04
756.37	1888.23
756.56	1908.71
756.75	1957.86
756.93	1863.65
757.12	1875.94
757.31	1927.14
757.50	1875.94
757.68	1847.27
757.87	1976.29
758.06	1933.28
758.25	1980.39
758.44	1908.71
758.62	1955.81
758.81	1892.32
759.00	1865.70
759.19	1931.23
759.37	1955.81
759.56	2015.20
759.75	1869.80
759.94	1964.00
760.12	1970.15
760.31	1935.33
760.50	1927.14
760.69	1966.05
760.87	1984.48
761.06	1964.00
761.25	1949.67
761.44	1914.85
761.62	1964.00
761.81	1943.52
762.00	1898.47
762.19	1914.85
762.37	1953.76
762.56	1916.90
762.75	1923.04
762.94	1935.33
763.12	1937.38
763.31	1990.63
763.50	1892.32
763.68	1869.80
763.87	1902.56
764.06	1931.23
764.25	1931.23
764.43	2009.06
764.62	1892.32
764.81	1884.13
764.99	1875.94
765.18	1939.43
765.37	1943.52
765.56	1918.95
765.74	1931.23
765.93	1894.37
766.12	1900.52
766.30	1941.47
766.49	1873.89
766.68	1918.95
766.87	2009.06
767.05	1931.23
767.24	1982.43
767.43	1943.52
767.61	1916.90
767.80	1970.15
767.99	1892.32
768.17	1939.43
768.36	1851.36
768.55	1902.56
768.73	1964.00
768.92	1945.57
769.11	1902.56
769.30	1920.99
769.48	1861.60
769.67	1906.66
769.86	1902.56
770.04	1837.03
770.23	1923.04
770.42	1851.36
770.60	1927.14
770.79	1812.45
770.98	1914.85
771.16	1853.41
771.35	1923.04
771.54	1816.55
771.72	1941.47
771.91	1992.67
772.10	1902.56
772.28	1927.14
772.47	1927.14
772.66	1918.95
772.84	1814.50
773.03	1947.62
773.22	1961.95
773.40	1935.33
773.59	1849.32
773.77	1816.55
773.96	1896.42
774.15	1888.23
774.33	1931.23
774.52	1898.47
774.71	1841.12
774.89	1941.47
775.08	1914.85
775.27	1814.50
775.45	1857.51
775.64	1828.84
775.83	1937.38
776.01	1898.47
776.20	1857.51
776.38	1949.67
776.57	1853.41
776.76	1865.70
776.94	1900.52
777.13	1959.91
777.32	1894.37
777.50	1806.31
777.69	1837.03
777.87	1869.80
778.06	1853.41
778.25	1808.36
778.43	1855.46
778.62	1925.09
778.80	1808.36
778.99	1988.58
779.18	1998.82
779.36	1902.56
779.55	1849.32
779.73	1935.33
779.92	1869.80
780.11	1931.23
780.29	1794.02
780.48	1933.28
780.66	1810.40
780.85	1857.51
781.04	1873.89
781.22	1904.61
781.41	1896.42
781.59	1853.41
781.78	1816.55
781.97	1898.47
782.15	1937.38
782.34	1918.95
782.52	1964.00
782.71	1912.80
782.89	1949.67
783.08	1957.86
783.27	1865.70
783.45	1873.89
783.64	1908.71
783.82	1886.18
784.01	1898.47
784.19	1877.99
784.38	1925.09
784.57	1945.57
784.75	1828.84
784.94	1830.88
785.12	1894.37
785.31	1837.03
785.49	1916.90
785.68	1890.28
785.86	1884.13
786.05	1826.79
786.24	1957.86
786.42	1851.36
786.61	1900.52
786.79	1861.60
786.98	1867.75
787.16	1898.47
787.35	1914.85
787.53	1955.81
787.72	1808.36
787.90	1837.03
788.09	1851.36
788.28	1959.91
788.46	1871.84
788.65	1902.56
788.83	1906.66
789.02	1861.60
789.20	1935.33
789.39	1839.08
789.57	1894.37
789.76	1888.23
789.94	1900.52
790.13	1941.47
790.31	1859.56
790.50	1839.08
790.68	2054.11
790.87	1912.80
791.05	1966.05
791.24	1902.56
791.42	1812.45
791.61	1802.21
791.79	1869.80
791.98	1859.56
792.16	1931.23
792.35	1931.23
792.53	1943.52
792.72	1853.41
792.90	1920.99
793.09	1939.43
793.27	1902.56
793.46	1865.70
793.64	1875.94
793.83	1865.70
794.01	1957.86
794.20	1851.36
794.38	1875.94
794.57	1824.74
794.75	1918.95
794.94	1880.04
795.12	1898.47
795.31	1849.32
795.49	1845.22
795.68	1923.04
795.86	1927.14
796.05	1808.36
796.23	1916.90
796.42	1910.75
796.60	1900.52
796.78	1884.13
796.97	1945.57
797.15	1855.46
797.34	1884.13
797.52	1918.95
797.71	1875.94
797.89	1791.97
798.08	1851.36
798.26	1837.03
798.45	1908.71
798.63	1908.71
798.81	1837.03
799.00	1914.85
799.18	1964.00
799.37	1904.61
799.55	1859.56
799.74	1828.84
799.92	1957.86
800.11	1855.46
800.29	1910.75
800.47	1890.28
800.66	1912.80
800.84	1890.28
801.03	1939.43
801.21	1892.32
801.40	1918.95
801.58	1875.94
801.76	1892.32
801.95	1935.33
802.13	1949.67
802.32	1826.79
802.50	1894.37
802.69	1849.32
802.87	1865.70
803.05	1877.99
803.24	1925.09
803.42	1877.99
803.61	1765.35
803.79	1832.93
803.97	1834.98
804.16	1867.75
804.34	1966.05
804.53	1828.84
804.71	1800.16
804.89	1941.47
805.08	1839.08
805.26	1869.80
805.45	1877.99
805.63	1894.37
805.81	1820.64
806.00	1898.47
806.18	1861.60
806.37	1955.81
806.55	1875.94
806.73	1882.08
806.92	1888.23
807.10	1820.64
807.28	1849.32
807.47	1841.12
807.65	1927.14
807.84	1920.99
808.02	1865.70
808.20	1796.07
808.39	1949.67
808.57	1839.08
808.75	1843.17
808.94	1822.69
809.12	1748.97
809.31	1816.55
809.49	1849.32
809.67	1886.18
809.86	1857.51
810.04	1886.18
810.22	1898.47
810.41	1748.97
810.59	1863.65
810.77	1808.36
810.96	1832.93
811.14	1964.00
811.32	1914.85
811.51	1857.51
811.69	1800.16
811.87	1902.56
812.06	1816.55
812.24	1824.74
812.42	1918.95
812.61	1861.60
812.79	1880.04
812.97	1931.23
813.16	1898.47
813.34	1906.66
813.52	1908.71
813.71	1886.18
813.89	1882.08
814.07	1847.27
814.26	1943.52
814.44	1890.28
814.62	1949.67
814.81	1871.84
814.99	1947.62
815.17	2205.66
815.36	1820.64
815.54	1943.52
815.72	1824.74
815.91	1818.60
816.09	1837.03
816.27	1863.65
816.45	1857.51
816.64	1888.23
816.82	1873.89
817.00	1953.76
817.19	1773.54
817.37	1900.52
817.55	1826.79
817.74	1861.60
817.92	1841.12
818.10	1857.51
818.28	1820.64
818.47	1845.22
818.65	1849.32
818.83	1841.12
819.02	1945.57
819.20	1871.84
819.38	1882.08
819.56	1837.03
819.75	1851.36
819.93	1837.03
820.11	1826.79
820.29	1851.36
820.48	1794.02
820.66	1839.08
820.84	1935.33
821.03	1808.36
821.21	1951.71
821.39	1949.67
821.57	1785.83
821.76	1759.21
821.94	1863.65
822.12	1863.65
822.30	1771.49
822.49	1877.99
822.67	1816.55
822.85	1830.88
823.03	1837.03
823.22	1716.20
823.40	1904.61
823.58	1898.47
823.76	1857.51
823.95	1775.59
824.13	1769.44
824.31	1837.03
824.49	1814.50
824.68	1794.02
824.86	1781.73
825.04	1869.80
825.22	1804.26
825.40	1810.40
825.59	1910.75
825.77	1839.08
825.95	1804.26
826.13	1839.08
826.32	1802.21
826.50	1869.80
826.68	1851.36
826.86	1759.21
827.04	1828.84
827.23	1886.18
827.41	1798.12
827.59	1785.83
827.77	1851.36
827.95	1877.99
828.14	1828.84
828.32	1816.55
828.50	1875.94
828.68	1832.93
828.86	1818.60
829.05	1783.78
829.23	1769.44
829.41	1841.12
829.59	1865.70
829.77	1800.16
829.96	1857.51
830.14	1826.79
830.32	1855.46
830.50	1812.45
830.68	1841.12
830.87	1861.60
831.05	1800.16
831.23	1851.36
831.41	1767.40
831.59	1796.07
831.77	1902.56
831.96	1751.01
832.14	1796.07
832.32	1738.73
832.50	1908.71
832.68	1857.51
832.86	1771.49
833.05	1740.77
833.23	1837.03
833.41	1767.40
833.59	1785.83
833.77	1841.12
833.95	1865.70
834.14	1884.13
834.32	1812.45
834.50	1882.08
834.68	1832.93
834.86	1873.89
835.04	1794.02
835.22	1865.70
835.41	1755.11
835.59	1929.19
835.77	1804.26
835.95	1812.45
836.13	1910.75
836.31	1779.68
836.49	1820.64
836.67	1785.83
836.86	1837.03
837.04	1832.93
837.22	1767.40
837.40	1828.84
837.58	1816.55
837.76	1869.80
837.94	1849.32
838.12	1744.87
838.31	1841.12
838.49	1849.32
838.67	1859.56
838.85	1877.99
839.03	1796.07
839.21	1875.94
839.39	1781.73
839.57	1824.74
839.75	1849.32
839.94	1804.26
840.12	1902.56
840.30	1820.64
840.48	1877.99
840.66	1808.36
840.84	1787.88
841.02	1789.92
841.20	1855.46
841.38	1767.40
841.56	1845.22
841.74	1742.82
841.93	1845.22
842.11	1796.07
842.29	1775.59
842.47	1849.32
842.65	1886.18
842.83	1810.40
843.01	1765.35
843.19	1894.37
843.37	1785.83
843.55	1722.34
843.73	1802.21
843.91	1775.59
844.09	1826.79
844.28	1808.36
844.46	1869.80
844.64	1794.02
844.82	1751.01
845.00	1875.94
845.18	1857.51
845.36	1804.26
845.54	1783.78
845.72	1781.73
845.90	1830.88
846.08	1820.64
846.26	1841.12
846.44	1828.84
846.62	1736.68
846.80	1765.35
846.98	1845.22
847.16	1826.79
847.34	1802.21
847.52	1736.68
847.70	1820.64
847.88	1794.02
848.07	1755.11
848.25	1738.73
848.43	1851.36
848.61	1828.84
848.79	1794.02
848.97	1853.41
849.15	1841.12
849.33	1800.16
849.51	1787.88
849.69	1834.98
849.87	1771.49
850.05	1759.21
850.23	1740.77
850.41	1753.06
850.59	1771.49
850.77	1810.40
850.95	1861.60
851.13	1777.64
851.31	1800.16
851.49	1896.42
851.67	1818.60
851.85	1808.36
852.03	1781.73
852.21	1806.31
852.39	1726.44
852.57	1740.77
852.75	1765.35
852.93	1822.69
853.11	1832.93
853.29	1832.93
853.47	1843.17
853.65	1808.36
853.83	1783.78
854.01	1828.84
854.19	1902.56
854.37	1789.92
854.55	1775.59
854.73	1806.31
854.91	1818.60
855.08	1867.75
855.26	1810.40
855.44	1820.64
855.62	1812.45
855.80	1812.45
855.98	1808.36
856.16	1804.26
856.34	1785.83
856.52	1865.70
856.70	1890.28
856.88	1875.94
857.06	1771.49
857.24	1775.59
857.42	1759.21
857.60	1736.68
857.78	1781.73
857.96	1794.02
858.14	1816.55
858.32	1869.80
858.50	1837.03
858.68	1736.68
858.85	1775.59
859.03	1802.21
859.21	1841.12
859.39	1802.21
859.57	1816.55
859.75	1859.56
859.93	1861.60
860.11	1785.83
860.29	1867.75
860.47	1759.21
860.65	1898.47
860.83	1851.36
861.01	1837.03
861.18	1710.05
861.36	1812.45
861.54	1800.16
861.72	1826.79
861.90	1794.02
862.08	1837.03
862.26	1689.57
862.44	1814.50
862.62	1794.02
862.80	1798.12
862.98	1781.73
863.15	1845.22
863.33	1828.84
863.51	1753.06
863.69	1769.44
863.87	1746.92
864.05	1834.98
864.23	1791.97
864.41	1767.40
864.59	1773.54
864.76	1775.59
864.94	1791.97
865.12	1796.07
865.30	1785.83
865.48	1853.41
865.66	1777.64
865.84	1646.57
866.02	1794.02
866.19	1832.93
866.37	1767.40
866.55	1734.63
866.73	1791.97
866.91	1765.35
867.09	1935.33
867.27	1798.12
867.44	1746.92
867.62	1832.93
867.80	1734.63
867.98	1800.16
868.16	1763.30
868.34	1773.54
868.52	1847.27
868.69	1738.73
868.87	1828.84
869.05	1759.21
869.23	1785.83
869.41	1740.77
869.59	1824.74
869.76	1718.25
869.94	1816.55
870.12	1755.11
870.30	1726.44
870.48	1759.21
870.66	1759.21
870.83	1841.12
871.01	1753.06
871.19	1822.69
871.37	1859.56
871.55	1710.05
871.73	1808.36
871.90	1708.01
872.08	1767.40
872.26	1695.72
872.44	1828.84
872.62	1736.68
872.79	1822.69
872.97	1810.40
873.15	1791.97
873.33	1763.30
873.51	1796.07
873.68	1712.10
873.86	1769.44
874.04	1763.30
874.22	1767.40
874.40	1740.77
874.57	1724.39
874.75	1820.64
874.93	1820.64
875.11	1658.85
875.29	1812.45
875.46	1787.88
875.64	1753.06
875.82	1738.73
876.00	1810.40
876.17	1859.56
876.35	1787.88
876.53	1798.12
876.71	1800.16
876.89	1755.11
877.06	1779.68
877.24	1751.01
877.42	1832.93
877.60	1798.12
877.77	1736.68
877.95	1783.78
878.13	1787.88
878.31	1677.29
878.48	1832.93
878.66	1843.17
878.84	1824.74
879.02	1781.73
879.19	1882.08
879.37	1767.40
879.55	1718.25
879.73	1738.73
879.90	1892.32
880.08	1800.16
880.26	1765.35
880.44	1808.36
880.61	1853.41
880.79	1769.44
880.97	1757.16
881.15	1808.36
881.32	1693.67
881.50	1933.28
881.68	1781.73
881.85	1871.84
882.03	1851.36
882.21	1882.08
882.39	1759.21
882.56	1736.68
882.74	1851.36
882.92	1761.25
883.09	1685.48
883.27	1808.36
883.45	1812.45
883.63	1746.92
883.80	1851.36
883.98	1779.68
884.16	1742.82
884.33	1873.89
884.51	1712.10
884.69	1794.02
884.87	1732.58
885.04	1775.59
885.22	1802.21
885.40	1712.10
885.57	1820.64
885.75	1771.49
885.93	1818.60
886.10	1777.64
886.28	1757.16
886.46	1710.05
886.63	1798.12
886.81	1753.06
886.99	1783.78
887.16	1742.82
887.34	1728.49
887.52	1806.31
887.69	1746.92
887.87	1820.64
888.05	1869.80
888.22	1708.01
888.40	1798.12
888.58	1798.12
888.75	1730.53
888.93	1681.38
889.11	1714.15
889.28	1738.73
889.46	1732.58
889.64	1746.92
889.81	1712.10
889.99	1658.85
890.17	1857.51
890.34	1804.26
890.52	1828.84
890.70	1857.51
890.87	1834.98
891.05	1753.06
891.22	1816.55
891.40	1724.39
891.58	1816.55
891.75	1761.25
891.93	1832.93
892.11	1818.60
892.28	1732.58
892.46	1800.16
892.63	1738.73
892.81	1722.34
892.99	1769.44
893.16	1800.16
893.34	1697.77
893.52	1822.69
893.69	1775.59
893.87	1751.01
894.04	1806.31
894.22	1695.72
894.40	1726.44
894.57	1728.49
894.75	1763.30
894.92	1826.79
895.10	1824.74
895.28	1710.05
895.45	1777.64
895.63	1841.12
895.80	1710.05
895.98	1779.68
896.16	1773.54
896.33	1828.84
896.51	1712.10
896.68	1746.92
896.86	1777.64
897.04	1800.16
897.21	1791.97
897.39	1767.40
897.56	1730.53
897.74	1777.64
897.91	1726.44
898.09	1734.63
898.27	1763.30
898.44	1763.30
898.62	1701.86
898.79	1720.29
898.97	1834.98
899.14	1847.27
899.32	1773.54
899.49	1775.59
899.67	1863.65
899.85	1703.91
900.02	1775.59
900.20	1720.29
900.37	1763.30
900.55	1751.01
900.72	1703.91
900.90	1736.68
901.07	1796.07
901.25	1728.49
901.43	1726.44
901.60	1751.01
901.78	1773.54
901.95	1769.44
902.13	1761.25
902.30	1718.25
902.48	1732.58
902.65	1777.64
902.83	1730.53
903.00	1783.78
903.18	1789.92
903.35	1769.44
903.53	1841.12
903.70	1693.67
903.88	1779.68
904.05	1744.87
904.23	1765.35
904.40	1726.44
904.58	1761.25
904.75	1669.09
904.93	1736.68
905.10	1669.09
905.28	1726.44
905.45	1687.53
905.63	1804.26
905.80	1755.11
905.98	1761.25
906.15	1755.11
906.33	1763.30
906.50	1718.25
906.68	1742.82
906.85	1781.73
907.03	1775.59
907.20	1734.63
907.38	1769.44
907.55	1753.06
907.73	1771.49
907.90	1662.95
908.08	1734.63
908.25	1763.30
908.43	1701.86
908.60	1755.11
908.78	1796.07
908.95	1712.10
909.13	1765.35
909.30	1744.87
909.47	1744.87
909.65	1734.63
909.82	1701.86
910.00	1736.68
910.17	1785.83
910.35	1757.16
910.52	1753.06
910.70	1748.97
910.87	1779.68
911.05	1751.01
911.22	1765.35
911.39	1865.70
911.57	1677.29
911.74	1716.20
911.92	1791.97
912.09	1773.54
912.27	1808.36
912.44	1755.11
912.61	1734.63
912.79	1734.63
912.96	1685.48
913.14	1826.79
913.31	1791.97
913.49	1787.88
913.66	1583.08
913.83	1685.48
914.01	1691.62
914.18	1693.67
914.36	1662.95
914.53	1693.67
914.70	1689.57
914.88	1800.16
915.05	1720.29
915.23	1765.35
915.40	1693.67
915.58	1611.75
915.75	1693.67
915.92	1775.59
916.10	1767.40
916.27	1746.92
916.44	1777.64
916.62	1761.25
916.79	1685.48
916.97	1708.01
917.14	1708.01
917.31	1687.53
917.49	1759.21
917.66	1726.44
917.84	1744.87
918.01	1712.10
918.18	1837.03
918.36	1779.68
918.53	1697.77
918.70	1681.38
918.88	1775.59
919.05	1652.71
919.23	1714.15
919.40	1769.44
919.57	1748.97
919.75	1779.68
919.92	1716.20
920.09	1744.87
920.27	1755.11
920.44	1802.21
920.61	1687.53
920.79	1740.77
920.96	1712.10
921.13	1712.10
921.31	1765.35
921.48	1751.01
921.65	1710.05
921.83	1761.25
922.00	1785.83
922.17	1763.30
922.35	1695.72
922.52	1738.73
922.69	1755.11
922.87	1798.12
923.04	1705.96
923.21	1804.26
923.39	1761.25
923.56	1751.01
923.73	1783.78
923.91	1673.19
924.08	1695.72
924.25	1710.05
924.43	1791.97
924.60	1626.09
924.77	1736.68
924.95	1710.05
925.12	1665.00
925.29	1703.91
925.47	1796.07
925.64	1718.25
925.81	1640.42
925.98	1679.33
926.16	1751.01
926.33	1708.01
926.50	1660.90
926.68	1660.90
926.85	1759.21
927.02	1722.34
927.19	1705.96
927.37	1730.53
927.54	1695.72
927.71	1728.49
927.89	1662.95
928.06	1607.66
928.23	1775.59
928.40	1779.68
928.58	1710.05
928.75	1730.53
928.92	1710.05
929.09	1662.95
929.27	1705.96
929.44	1712.10
929.61	1710.05
929.79	1679.33
929.96	1720.29
930.13	1640.42
930.30	1705.96
930.48	1654.76
930.65	1644.52
930.82	1660.90
930.99	1718.25
931.17	1665.00
931.34	1712.10
931.51	1705.96
931.68	1736.68
931.85	1738.73
932.03	1787.88
932.20	1693.67
932.37	1699.81
932.54	1740.77
932.72	1746.92
932.89	1693.67
933.06	1728.49
933.23	1759.21
933.41	1775.59
933.58	1716.20
933.75	1699.81
933.92	1685.48
934.09	1740.77
934.27	1640.42
934.44	1841.12
934.61	1701.86
934.78	1701.86
934.95	1769.44
935.13	1691.62
935.30	1677.29
935.47	1658.85
935.64	1710.05
935.81	1572.84
935.99	1767.40
936.16	1679.33
936.33	1677.29
936.50	1755.11
936.67	1658.85
936.85	1621.99
937.02	1644.52
937.19	1714.15
937.36	1748.97
937.53	1738.73
937.71	1720.29
937.88	1669.09
938.05	1599.46
938.22	1626.09
938.39	1724.39
938.56	1665.00
938.74	1697.77
938.91	1734.63
939.08	1673.19
939.25	1679.33
939.42	1615.85
939.59	1751.01
939.77	1687.53
939.94	1718.25
940.11	1710.05
940.28	1615.85
940.45	1615.85
940.62	1648.61
940.79	1710.05
940.97	1644.52
941.14	1720.29
941.31	1677.29
941.48	1640.42
941.65	1671.14
941.82	1703.91
941.99	1714.15
942.17	1722.34
942.34	1617.90
942.51	1642.47
942.68	1746.92
942.85	1677.29
943.02	1632.23
943.19	1656.81
943.36	1665.00
943.54	1681.38
943.71	1740.77
943.88	1705.96
944.05	1654.76
944.22	1720.29
944.39	1697.77
944.56	1734.63
944.73	1599.46
944.90	1671.14
945.08	1662.95
945.25	1646.57
945.42	1710.05
945.59	1628.14
945.76	1636.33
945.93	1640.42
946.10	1701.86
946.27	1632.23
946.44	1652.71
946.61	1654.76
946.78	1646.57
946.96	1644.52
947.13	1720.29
947.30	1718.25
947.47	1685.48
947.64	1701.86
947.81	1679.33
947.98	1712.10
948.15	1703.91
948.32	1669.09
948.49	1624.04
948.66	1640.42
948.83	1769.44
949.00	1710.05
949.17	1677.29
949.35	1599.46
949.52	1691.62
949.69	1652.71
949.86	1701.86
950.03	1679.33
950.20	1697.77
950.37	1687.53
950.54	1691.62
950.71	1697.77
950.88	1687.53
951.05	1693.67
951.22	1652.71
951.39	1705.96
951.56	1665.00
951.73	1634.28
951.90	1652.71
952.07	1630.18
952.24	1675.24
952.41	1636.33
952.58	1734.63
952.75	1716.20
952.92	1730.53
953.09	1648.61
953.26	1681.38
953.43	1660.90
953.60	1605.61
953.77	1710.05
953.94	1621.99
954.11	1650.66
954.28	1687.53
954.45	1531.88
954.62	1597.42
954.79	1681.38
954.96	1644.52
955.13	1814.50
955.30	1689.57
955.47	1712.10
955.64	1665.00
955.81	1621.99
955.98	1705.96
956.15	1652.71
956.32	1648.61
956.49	1634.28
956.66	1644.52
956.83	1652.71
957.00	1613.80
957.17	1654.76
957.34	1691.62
957.51	1646.57
957.68	1652.71
957.85	1679.33
958.02	1669.09
958.19	1628.14
958.36	1648.61
958.53	1601.51
958.70	1673.19
958.87	1636.33
959.04	1683.43
959.21	1572.84
959.38	1525.74
959.55	1650.66
959.72	1759.21
959.89	1601.51
960.06	1710.05
960.23	1691.62
960.39	1714.15
960.56	1574.89
960.73	1613.80
960.90	1662.95
961.07	1628.14
961.24	1687.53
961.41	1609.70
961.58	1636.33
961.75	1699.81
961.92	1644.52
962.09	1656.81
962.26	1546.22
962.43	1542.12
962.60	1669.09
962.76	1656.81
962.93	1636.33
963.10	1597.42
963.27	1652.71
963.44	1542.12
963.61	1652.71
963.78	1628.14
963.95	1650.66
964.12	1630.18
964.29	1613.80
964.46	1636.33
964.62	1628.14
964.79	1685.48
964.96	1626.09
965.13	1748.97
965.30	1669.09
965.47	1679.33
965.64	1738.73
965.81	1585.13
965.98	1714.15
966.14	1730.53
966.31	1619.94
966.48	1660.90
966.65	1570.79
966.82	1654.76
966.99	1619.94
967.16	1658.85
967.33	1603.56
967.49	1621.99
967.66	1669.09
967.83	1611.75
968.00	1595.37
968.17	1578.98
968.34	1669.09
968.51	1699.81
968.67	1538.02
968.84	1632.23
969.01	1624.04
969.18	1722.34
969.35	1564.65
969.52	1658.85
969.68	1736.68
969.85	1589.22
970.02	1728.49
970.19	1628.14
970.36	1648.61
970.53	1589.22
970.69	1595.37
970.86	1648.61
971.03	1675.24
971.20	1648.61
971.37	1603.56
971.54	1718.25
971.70	1738.73
971.87	1638.38
972.04	1611.75
972.21	1660.90
972.38	1662.95
972.55	1775.59
972.71	1642.47
972.88	1656.81
973.05	1605.61
973.22	1611.75
973.39	1734.63
973.55	1665.00
973.72	1673.19
973.89	1683.43
974.06	1632.23
974.23	1689.57
974.39	1673.19
974.56	1710.05
974.73	1646.57
974.90	1544.17
975.06	1640.42
975.23	1638.38
975.40	1681.38
975.57	1660.90
975.74	1705.96
975.90	1624.04
976.07	1662.95
976.24	1601.51
976.41	1660.90
976.57	1656.81
976.74	1624.04
976.91	1673.19
977.08	1630.18
977.24	1583.08
977.41	1632.23
977.58	1595.37
977.75	1617.90
977.92	1654.76
978.08	1599.46
978.25	1636.33
978.42	1628.14
978.58	1589.22
978.75	1677.29
978.92	1603.56
979.09	1714.15
979.25	1675.24
979.42	1658.85
979.59	1632.23
979.76	1687.53
979.92	1662.95
980.09	1697.77
980.26	1550.31
980.43	1679.33
980.59	1615.85
980.76	1570.79
980.93	1564.65
981.09	1607.66
981.26	1613.80
981.43	1621.99
981.60	1703.91
981.76	1644.52
981.93	1605.61
982.10	1548.26
982.26	1562.60
982.43	1564.65
982.60	1673.19
982.77	1613.80
982.93	1667.05
983.10	1619.94
983.27	1781.73
983.43	1621.99
983.60	1662.95
983.77	1628.14
983.93	1583.08
984.10	1673.19
984.27	1658.85
984.43	1685.48
984.60	1660.90
984.77	1636.33
984.93	1687.53
985.10	1595.37
985.27	1712.10
985.43	1646.57
985.60	1665.00
985.77	1636.33
985.93	1605.61
986.10	1515.50
986.27	1662.95
986.43	1677.29
986.60	1578.98
986.77	1630.18
986.93	1617.90
987.10	1585.13
987.27	1597.42
987.43	1640.42
987.60	1597.42
987.77	1542.12
987.93	1650.66
988.10	1562.60
988.27	1611.75
988.43	1662.95
988.60	1656.81
988.76	1724.39
988.93	1681.38
989.10	1626.09
989.26	1679.33
989.43	1644.52
989.60	1695.72
989.76	1681.38
989.93	1630.18
990.09	1570.79
990.26	1660.90
990.43	1564.65
990.59	1628.14
990.76	1624.04
990.92	1611.75
991.09	1644.52
991.26	1613.80
991.42	1603.56
991.59	1718.25
991.76	1648.61
991.92	1742.82
992.09	1626.09
992.25	1613.80
992.42	1578.98
992.58	1538.02
992.75	1626.09
992.92	1621.99
993.08	1601.51
993.25	1710.05
993.41	1624.04
993.58	1640.42
993.75	1675.24
993.91	1734.63
994.08	1720.29
994.24	1615.85
994.41	1701.86
994.57	1613.80
994.74	1671.14
994.91	1638.38
995.07	1681.38
995.24	1632.23
995.40	1574.89
995.57	1644.52
995.73	1624.04
995.90	1603.56
996.06	1642.47
996.23	1632.23
996.40	1581.03
996.56	1636.33
996.73	1712.10
996.89	1697.77
997.06	1650.66
997.22	1652.71
997.39	1665.00
997.55	1638.38
997.72	1621.99
997.88	1671.14
998.05	1630.18
998.21	1601.51
998.38	1644.52
998.54	1581.03
998.71	1658.85
998.87	1665.00
999.04	1650.66
999.21	1703.91
999.37	1652.71
999.54	1652.71
999.70	1658.85
999.87	1617.90
1000.03	1597.42
1000.20	1558.50
1000.36	1624.04
1000.53	1591.27
1000.69	1624.04
1000.86	1683.43
1001.02	1517.54
1001.19	1611.75
1001.35	1624.04
1001.52	1601.51
1001.68	1568.74
1001.84	1585.13
1002.01	1572.84
1002.17	1581.03
1002.34	1523.69
1002.50	1650.66
1002.67	1628.14
1002.83	1654.76
1003.00	1554.41
1003.16	1564.65
1003.33	1587.18
1003.49	1687.53
1003.66	1628.14
1003.82	1617.90
1003.99	1578.98
1004.15	1574.89
1004.32	1515.50
1004.48	1634.28
1004.64	1660.90
1004.81	1679.33
1004.97	1628.14
1005.14	1675.24
1005.30	1660.90
1005.47	1697.77
1005.63	1634.28
1005.80	1648.61
1005.96	1619.94
1006.12	1546.22
1006.29	1687.53
1006.45	1695.72
1006.62	1601.51
1006.78	1652.71
1006.95	1646.57
1007.11	1634.28
1007.27	1740.77
1007.44	1675.24
1007.60	1558.50
1007.77	1630.18
1007.93	1642.47
1008.09	1669.09
1008.26	1673.19
1008.42	1652.71
1008.59	1665.00
1008.75	1669.09
1008.92	1656.81
1009.08	1644.52
1009.24	1685.48
1009.41	1611.75
1009.57	1621.99
1009.73	1685.48
1009.90	1685.48
1010.06	1677.29
1010.23	1652.71
1010.39	1646.57
1010.55	1654.76
1010.72	1529.83
1010.88	1615.85
1011.05	1613.80
1011.21	1611.75
1011.37	1607.66
1011.54	1658.85
1011.70	1621.99
1011.86	1603.56
1012.03	1628.14
1012.19	1587.18
1012.36	1687.53
1012.52	1611.75
1012.68	1615.85
1012.85	1581.03
1013.01	1599.46
1013.17	1638.38
1013.34	1673.19
1013.50	1662.95
1013.66	1484.78
1013.83	1646.57
1013.99	1605.61
1014.15	1574.89
1014.32	1677.29
1014.48	1560.55
1014.64	1562.60
1014.81	1574.89
1014.97	1546.22
1015.13	1640.42
1015.30	1630.18
1015.46	1566.70
1015.62	1742.82
1015.79	1599.46
1015.95	1621.99
1016.11	1628.14
1016.28	1648.61
1016.44	1646.57
1016.60	1607.66
1016.77	1546.22
1016.93	1605.61
1017.09	1611.75
1017.26	1630.18
1017.42	1572.84
1017.58	1638.38
1017.74	1650.66
1017.91	1570.79
1018.07	1628.14
1018.23	1636.33
1018.40	1652.71
1018.56	1636.33
1018.72	1570.79
1018.88	1632.23
1019.05	1583.08
1019.21	1644.52
1019.37	1621.99
1019.54	1562.60
1019.70	1626.09
1019.86	1646.57
1020.02	1669.09
1020.19	1570.79
1020.35	1589.22
1020.51	1574.89
1020.68	1599.46
1020.84	1546.22
1021.00	1599.46
1021.16	1662.95
1021.33	1576.94
1021.49	1628.14
1021.65	1572.84
1021.81	1538.02
1021.98	1646.57
1022.14	1642.47
1022.30	1589.22
1022.46	1562.60
1022.63	1652.71
1022.79	1619.94
1022.95	1570.79
1023.11	1591.27
1023.27	1644.52
1023.44	1646.57
1023.60	1619.94
1023.76	1607.66
1023.92	1599.46
1024.09	1638.38
1024.25	1656.81
1024.41	1730.53
1024.57	1548.26
1024.74	1578.98
1024.90	1624.04
1025.06	1660.90
1025.22	1554.41
1025.38	1546.22
1025.55	1558.50
1025.71	1619.94
1025.87	1603.56
1026.03	1624.04
1026.19	1605.61
1026.36	1538.02
1026.52	1595.37
1026.68	1595.37
1026.84	1511.40
1027.00	1603.56
1027.17	1671.14
1027.33	1675.24
1027.49	1619.94
1027.65	1589.22
1027.81	1624.04
1027.97	1665.00
1028.14	1609.70
1028.30	1654.76
1028.46	1595.37
1028.62	1589.22
1028.78	1611.75
1028.94	1595.37
1029.11	1691.62
1029.27	1619.94
1029.43	1646.57
1029.59	1636.33
1029.75	1617.90
1029.91	1599.46
1030.08	1748.97
1030.24	1519.59
1030.40	1568.74
1030.56	1619.94
1030.72	1587.18
1030.88	1513.45
1031.04	1640.42
1031.21	1581.03
1031.37	1556.46
1031.53	1593.32
1031.69	1626.09
1031.85	1615.85
1032.01	1615.85
1032.17	1624.04
1032.34	1681.38
1032.50	1667.05
1032.66	1480.68
1032.82	1636.33
1032.98	1671.14
1033.14	1677.29
1033.30	1581.03
1033.46	1648.61
1033.62	1685.48
1033.79	1656.81
1033.95	1619.94
1034.11	1560.55
1034.27	1685.48
1034.43	1644.52
1034.59	1611.75
1034.75	1619.94
1034.91	1574.89
1035.07	1681.38
1035.23	1714.15
1035.40	1642.47
1035.56	1603.56
1035.72	1599.46
1035.88	1585.13
1036.04	1570.79
1036.20	1603.56
>>>>>End Processed Spectral Data<<<<<
